Wavelength,Flux
341.572,45.252
341.796,45.252
342.021,45.252
342.246,83.8905
342.47,77.59579
342.695,-45.81865
342.919,34.40958
343.144,74.37488
343.368,-10.75391
343.592,-34.57631
343.817,-83.89243
344.041,80.79176
344.266,-49.92015
344.49,11.70997
344.714,-19.24062
344.939,-35.02656
345.163,78.48775
345.387,14.01058
345.611,22.01118
345.836,106.84408
346.06,-15.53463
346.284,-29.70925
346.508,35.51618
346.732,172.09541
346.957,150.10254
347.181,7.57009
347.405,-64.90431
347.629,-92.04391
347.853,54.79975
348.077,3.91198
348.301,20.15865
348.525,80.46099
348.749,19.26006
348.973,11.46729
349.197,-13.02613
349.421,128.70565
349.645,42.16269
349.869,-8.44755
350.092,101.09917
350.316,75.22032
350.54,62.79368
350.764,103.48505
350.988,63.69911
351.211,70.43364
351.435,58.20245
351.659,52.77617
351.883,112.52189
352.106,86.00734
352.33,16.96217
352.554,-6.16096
352.777,103.61598
353.001,11.92606
353.224,108.95489
353.448,66.70495
353.672,9.17299
353.895,89.22673
354.119,63.7091
354.342,-7.538
354.566,71.26023
354.789,24.98605
355.012,96.98792
355.236,-5.01915
355.459,57.79924
355.683,-20.34754
355.906,-29.26757
356.129,65.56558
356.353,-13.47977
356.576,41.03115
356.799,7.80618
357.022,-13.02918
357.246,26.35769
357.469,14.89043
357.692,-5.01837
357.915,3.4524
358.138,56.82492
358.361,23.38331
358.585,-26.06292
358.808,17.19375
359.031,-24.91655
359.254,113.49696
359.477,13.07992
359.7,15.59364
359.923,38.95215
360.146,39.40987
360.369,57.26466
360.592,27.02547
360.815,22.92357
361.038,4.14031
361.26,65.77385
361.483,37.34712
361.706,7.34473
361.929,55.43453
362.152,95.82098
362.375,49.74192
362.597,63.92793
362.82,21.08857
363.043,-99.17583
363.265,46.78022
363.488,16.72414
363.711,-17.14154
363.933,24.07398
364.156,73.57692
364.379,33.22474
364.601,94.65457
364.824,-6.15808
365.046,-210.59883
365.269,69.19018
365.491,81.1412
365.714,30.68544
365.936,25.65086
366.159,28.64241
366.381,69.6641
366.604,-7.53037
366.826,68.52533
367.048,141.47562
367.271,44.94433
367.493,96.27861
367.715,41.46308
367.938,106.12423
368.16,28.16049
368.382,34.81594
368.604,44.46879
368.827,29.77049
369.049,62.1266
369.271,-17.82124
369.493,8.71401
369.715,94.42579
369.937,102.69273
370.16,172.12265
370.382,100.44435
370.604,11.00258
370.826,61.41086
371.048,114.2735
371.27,11.91213
371.492,89.65641
371.714,32.29913
371.936,74.45732
372.158,-11.88066
372.379,142.8929
372.601,3.68156
372.823,98.09364
373.045,96.23328
373.267,11.91954
373.489,108.59781
373.71,12.13515
373.932,-51.65768
374.154,21.29755
374.376,42.84261
374.597,65.25486
374.819,48.78411
375.041,133.2724
375.262,62.988
375.484,132.51278
375.706,33.42232
375.927,85.95997
376.149,130.67277
376.37,147.36357
376.592,74.66855
376.813,150.42953
377.035,82.05011
377.256,74.22276
377.478,88.20674
377.699,56.78054
377.921,39.65115
378.142,47.15337
378.363,191.97557
378.585,69.20645
378.806,85.1468
379.027,127.20198
379.249,5.96666
379.47,-35.39134
379.691,105.80424
379.912,97.81119
380.134,180.90145
380.355,69.10926
380.576,47.84668
380.797,128.12667
381.018,88.87896
381.239,135.40078
381.461,131.44172
381.682,53.57083
381.903,4.81627
382.124,175.56149
382.345,35.04473
382.566,105.80424
382.787,70.73628
383.008,82.15047
383.229,165.35609
383.45,95.27368
383.671,123.01822
383.891,128.48327
384.112,88.13097
384.333,51.20876
384.554,135.82596
384.775,173.02089
384.996,182.64361
385.216,178.09398
385.437,61.55797
385.658,82.62667
385.879,122.99896
386.099,82.09949
386.32,116.32524
386.541,111.25446
386.761,38.90662
386.982,61.04882
387.202,-26.69385
387.423,30.18113
387.644,73.16537
387.864,109.41829
388.085,68.61495
388.305,96.10566
388.526,120.8854
388.746,153.45031
388.966,31.12113
389.187,76.39096
389.407,124.33126
389.628,145.13583
389.848,79.62493
390.068,150.15863
390.289,73.21073
390.509,45.48947
390.729,94.08655
390.95,60.6203
391.17,95.63398
391.39,80.92656
391.61,46.15308
391.83,129.28628
392.051,159.41319
392.271,91.68027
392.491,96.71583
392.711,73.17103
392.931,140.14501
393.151,140.26405
393.371,129.06803
393.591,162.07783
393.811,130.76256
394.031,159.92006
394.251,55.11564
394.471,118.49936
394.691,87.6126
394.911,208.20028
395.131,118.03365
395.351,-26.43912
395.571,149.59729
395.791,113.63483
396.01,107.54044
396.23,181.53092
396.45,136.39429
396.67,52.55438
396.89,82.54974
397.109,115.75102
397.329,109.7983
397.549,185.86621
397.768,99.33407
397.988,162.1538
398.208,80.29155
398.427,51.66142
398.647,94.83136
398.866,171.7977
399.086,174.76636
399.306,58.46934
399.525,128.3731
399.745,171.06089
399.964,189.67943
400.183,185.22508
400.403,166.45357
400.622,15.07956
400.842,136.49542
401.061,147.11054
401.28,214.66695
401.5,78.66232
401.719,116.40874
401.938,170.72418
402.158,89.30147
402.377,45.68963
402.596,230.57492
402.815,94.16885
403.035,139.29696
403.254,189.91361
403.473,227.0181
403.692,108.09985
403.911,248.51366
404.13,190.7166
404.35,101.87025
404.569,122.92173
404.788,196.8771
405.007,98.91402
405.226,69.01836
405.445,199.37102
405.664,130.78279
405.883,156.03153
406.102,177.02965
406.321,184.61046
406.539,175.72977
406.758,221.60997
406.977,94.41889
407.196,148.60411
407.415,82.95504
407.634,-5.45442
407.852,69.47477
408.071,207.28914
408.29,197.8945
408.509,144.95555
408.727,105.63161
408.946,47.50041
409.165,85.9408
409.383,190.85551
409.602,120.42321
409.821,97.08984
410.039,109.77276
410.258,75.81719
410.476,98.75451
410.695,105.62344
410.913,97.25522
411.132,190.6126
411.35,148.05782
411.569,169.54375
411.787,126.77749
412.006,136.73408
412.224,171.40868
412.443,106.9594
412.661,125.80306
412.879,171.73054
413.098,129.29634
413.316,98.05483
413.534,151.14733
413.752,106.32441
413.971,237.31781
414.189,63.73961
414.407,10.74309
414.625,194.07873
414.844,82.25789
415.062,93.51328
415.28,106.49499
415.498,158.02488
415.716,145.65096
415.934,154.83195
416.152,176.09027
416.37,146.32381
416.588,144.79481
416.806,135.25054
417.024,103.94594
417.242,231.1509
417.46,165.67524
417.678,148.78613
417.896,273.03467
418.114,214.96196
418.332,154.95211
418.55,192.77343
418.767,295.11782
418.985,213.46045
419.203,218.76108
419.421,212.61167
419.639,209.35784
419.856,265.30283
420.074,216.51716
420.292,182.13259
420.509,175.2167
420.727,168.96286
420.945,144.82139
421.162,205.42268
421.38,187.42631
421.597,233.54203
421.815,259.42378
422.033,158.71649
422.25,204.53505
422.468,223.50855
422.685,217.27722
422.903,230.61865
423.12,42.81431
423.337,185.4067
423.555,192.05071
423.772,156.18805
423.99,255.7014
424.207,152.80022
424.424,92.70884
424.642,254.85081
424.859,264.18839
425.076,277.75042
425.293,228.6562
425.511,169.06104
425.728,148.92192
425.945,200.48633
426.162,284.74532
426.379,207.53984
426.597,221.81224
426.814,182.29408
427.031,255.89811
427.248,281.49602
427.465,187.46945
427.682,217.3377
427.899,106.25867
428.116,169.31439
428.333,229.53356
428.55,237.7746
428.767,160.81549
428.984,178.75059
429.201,243.32741
429.418,297.36874
429.635,197.93838
429.852,240.84304
430.068,183.18688
430.285,95.87603
430.502,222.68394
430.719,248.44763
430.936,156.967
431.152,89.49512
431.369,251.82867
431.586,185.12244
431.802,208.99935
432.019,152.25223
432.236,96.86181
432.452,135.6251
432.669,60.94095
432.886,172.13426
433.102,175.72977
433.319,132.37948
433.535,216.7865
433.752,90.06174
433.968,43.8878
434.185,161.59609
434.401,179.91951
434.618,246.91716
434.834,214.80855
435.051,179.43135
435.267,202.63743
435.483,82.32781
435.7,106.67683
435.916,134.90144
436.132,102.74465
436.349,173.92109
436.565,63.37631
436.781,174.93105
436.997,-210.88648
437.214,42.99778
437.43,193.1646
437.646,92.65777
437.862,204.67701
438.078,187.67658
438.294,87.64663
438.51,165.4156
438.727,111.92235
438.943,103.65819
439.159,171.08573
439.375,151.9109
439.591,86.28931
439.807,67.74345
440.023,158.4996
440.239,150.07686
440.455,111.69394
440.67,155.98707
440.886,81.42714
441.102,69.34315
441.318,130.46833
441.534,103.68239
441.75,82.09313
441.966,67.04219
442.181,54.42621
442.397,118.77378
442.613,75.23746
442.829,167.01462
443.044,115.83209
443.26,18.53841
443.476,114.01348
443.691,101.43749
443.907,87.25773
444.123,106.43178
444.338,81.92201
444.554,105.76296
444.769,107.52374
444.985,118.35394
445.2,123.92278
445.416,131.35105
445.631,84.68318
445.847,114.39912
446.062,-12.09359
446.278,59.6511
446.493,-319.91184
446.708,70.89874
446.924,18.30843
447.139,81.47776
447.355,117.44021
447.57,37.29769
447.785,40.44419
448,126.44656
448.216,77.54477
448.431,70.88228
448.646,-10.48303
448.861,133.98645
449.077,153.19795
449.292,17.14846
449.507,103.59385
449.722,25.15431
449.937,127.98629
450.152,36.8206
450.367,106.2199
450.582,64.72207
450.797,154.00333
451.012,65.79284
451.227,74.10149
451.442,134.46346
451.657,165.38968
451.872,241.10002
452.087,169.70245
452.302,37.23441
452.517,167.54272
452.732,134.19378
452.947,215.22362
453.161,144.30492
453.376,137.63229
453.591,156.55005
453.806,198.58263
454.021,207.46694
454.235,54.33829
454.45,92.75696
454.665,196.5129
454.879,99.77242
455.094,180.3197
455.309,181.08866
455.523,161.20498
455.738,116.78385
455.952,120.02278
456.167,71.49552
456.382,96.18511
456.596,225.76704
456.811,152.29937
457.025,238.42592
457.24,187.18714
457.454,204.37888
457.668,170.8859
457.883,157.8213
458.097,201.88852
458.312,246.28592
458.526,114.80924
458.74,251.26258
458.955,108.68371
459.169,196.40459
459.383,153.52535
459.598,114.53767
459.812,154.74973
460.026,175.33663
460.24,178.5641
460.454,192.68396
460.669,177.26638
460.883,211.71692
461.097,297.78159
461.311,201.97591
461.525,182.43084
461.739,110.48123
461.953,176.89271
462.167,203.50699
462.381,226.22274
462.595,204.80965
462.809,228.0087
463.023,290.03993
463.237,209.21268
463.451,285.69913
463.665,180.31601
463.879,288.71908
464.093,220.81702
464.307,167.46859
464.52,260.48767
464.734,241.05202
464.948,244.55937
465.162,167.0883
465.376,186.47321
465.589,228.02596
465.803,253.85065
466.017,319.56083
466.231,158.88325
466.444,172.10145
466.658,187.85262
466.871,183.51544
467.085,215.09612
467.299,223.5125
467.512,225.50751
467.726,190.46621
467.939,302.73
468.153,223.63276
468.366,238.68453
468.58,299.77912
468.793,298.86551
469.007,231.1559
469.22,261.92526
469.434,184.48395
469.647,234.57159
469.86,330.75094
470.074,336.74231
470.287,303.91339
470.5,277.63
470.714,176.29913
470.927,185.05336
471.14,252.72202
471.353,290.9557
471.567,263.00763
471.78,255.38894
471.993,337.56626
472.206,321.77345
472.419,282.94564
472.633,261.84529
472.846,285.62704
473.059,381.22627
473.272,334.93545
473.485,268.47095
473.698,290.66597
473.911,206.94879
474.124,117.16018
474.337,257.20526
474.55,256.29711
474.763,369.65581
474.976,316.01677
475.189,301.72337
475.402,372.94984
475.614,326.58736
475.827,320.38102
476.04,266.11543
476.253,283.17273
476.466,246.98705
476.678,296.47782
476.891,213.97306
477.104,333.52952
477.317,321.10723
477.529,340.32647
477.742,280.3374
477.955,283.19704
478.167,245.60262
478.38,319.03674
478.593,217.5216
478.805,229.81465
479.018,155.50412
479.23,336.06749
479.443,83.91567
479.655,157.55358
479.868,173.59577
480.08,267.12572
480.293,237.53287
480.505,196.90608
480.718,138.39858
480.93,154.31603
481.143,34.44615
481.355,109.64571
481.567,170.45623
481.78,186.90515
481.992,51.39353
482.204,226.29306
482.417,125.75433
482.629,198.21502
482.841,164.58868
483.053,165.86775
483.265,222.18761
483.478,216.43179
483.69,153.05478
483.902,87.10188
484.114,197.3796
484.326,118.43508
484.538,74.70578
484.75,118.94666
484.962,83.20246
485.175,173.39466
485.387,53.51677
485.599,125.35636
485.811,-14.57902
486.022,143.23106
486.234,83.49526
486.446,115.49587
486.658,18.96191
486.87,137.24343
487.082,133.9561
487.294,137.93866
487.506,97.68169
487.718,81.17363
487.929,117.33978
488.141,115.59464
488.353,72.95965
488.565,207.33611
488.776,121.47613
488.988,204.86103
489.2,101.5396
489.411,144.16634
489.623,74.24384
489.835,118.19779
490.046,178.36393
490.258,173.77145
490.47,136.13424
490.681,79.59404
490.893,171.47548
491.104,58.0176
491.316,134.49474
491.527,94.69107
491.739,139.31859
491.95,116.41776
492.162,123.7779
492.373,119.44025
492.584,66.81371
492.796,193.72831
493.007,106.19508
493.218,23.75825
493.43,184.18479
493.641,94.67639
493.852,160.14852
494.064,93.96247
494.275,159.20972
494.486,54.18106
494.697,126.51715
494.909,124.2828
495.12,75.52439
495.331,99.3186
495.542,201.44782
495.753,82.15047
495.964,29.73125
496.175,155.63707
496.386,211.4945
496.597,67.46776
496.808,69.57168
497.019,56.4642
497.23,79.36568
497.441,110.55187
497.652,120.11585
497.863,113.52116
498.074,191.74927
498.285,107.09206
498.496,112.72197
498.707,227.26442
498.918,117.16613
499.129,149.49706
499.339,23.78568
499.55,196.16398
499.761,183.11484
499.972,234.67211
500.182,43.6696
500.393,13.26156
500.604,74.59293
500.815,128.13484
501.025,110.78029
501.236,201.43201
501.447,96.06835
501.657,140.13406
501.868,61.02055
502.078,186.09437
502.289,200.60545
502.499,166.37573
502.71,83.77572
502.92,134.31871
503.131,134.04877
503.341,72.4413
503.552,167.7448
503.762,145.27368
503.973,125.31748
504.183,85.21681
504.393,124.05443
504.604,157.08831
504.814,132.9594
505.024,178.25275
505.235,284.29275
505.445,68.55137
505.655,180.53376
505.866,115.14304
506.076,90.01315
506.286,188.60397
506.496,182.31595
506.706,173.95899
506.917,130.74235
507.127,184.65255
507.337,84.70855
507.547,137.69395
507.757,132.85622
507.967,194.23359
508.177,135.61254
508.387,241.44739
508.597,254.2943
508.807,154.71421
509.017,264.76458
509.227,152.09973
509.437,269.21401
509.647,183.25984
509.857,168.43007
510.067,193.14424
510.277,162.28535
510.486,249.18507
510.696,150.83363
510.906,252.71312
511.116,245.12871
511.326,259.02292
511.535,215.87374
511.745,134.43486
511.955,225.6866
512.165,260.66201
512.374,247.27071
512.584,340.57082
512.794,324.31669
513.003,368.35076
513.213,330.80166
513.422,274.3951
513.632,375.73285
513.841,305.42004
514.051,282.46
514.261,340.78943
514.47,274.86701
514.68,323.44095
514.889,246.00676
515.098,347.17018
515.308,308.95656
515.517,296.72871
515.727,287.88319
515.936,353.90677
516.145,258.78573
516.355,351.23987
516.564,381.95161
516.773,314.56736
516.983,357.27256
517.192,336.94387
517.401,386.30683
517.61,315.52146
517.82,345.97831
518.029,354.4904
518.238,326.60404
518.447,462.16881
518.656,309.09857
518.865,326.90424
519.074,301.57939
519.284,351.24263
519.493,356.88479
519.702,428.14118
519.911,469.8732
520.12,438.16105
520.329,373.8493
520.538,370.87956
520.747,398.57835
520.956,487.872
521.165,474.77543
521.373,492.50941
521.582,399.30498
521.791,299.38584
522,477.8587
522.209,401.75991
522.418,435.02254
522.627,382.77725
522.835,508.06828
523.044,439.01601
523.253,452.46217
523.462,347.98965
523.67,434.72469
523.879,410.13601
524.088,408.66992
524.296,431.30385
524.505,441.34054
524.713,429.04609
524.922,443.46613
525.131,489.02811
525.339,538.14473
525.548,523.76142
525.756,409.92119
525.965,464.26663
526.173,470.37822
526.382,496.39691
526.59,387.12655
526.799,479.23754
527.007,410.1892
527.215,501.24842
527.424,484.13604
527.632,489.88878
527.841,431.04587
528.049,376.1774
528.257,416.12881
528.466,490.13151
528.674,441.42427
528.882,489.94256
529.09,469.71584
529.299,530.53317
529.507,608.55516
529.715,512.36853
529.923,439.16579
530.131,543.6448
530.339,454.07684
530.547,494.78722
530.756,482.87148
530.964,539.623
531.172,434.36788
531.38,490.67611
531.588,528.23903
531.796,538.76239
532.004,498.13188
532.212,535.35851
532.42,517.62795
532.628,510.71284
532.836,529.48974
533.043,500.76228
533.251,562.89813
533.459,516.30465
533.667,615.29124
533.875,605.83766
534.083,478.38677
534.29,535.91469
534.498,554.82779
534.706,663.30807
534.914,539.64812
535.121,527.94247
535.329,574.88534
535.537,556.11839
535.744,552.57681
535.952,551.3903
536.16,593.14378
536.367,601.96718
536.575,492.85496
536.783,624.6568
536.99,669.83165
537.198,596.58412
537.405,629.68203
537.613,488.08491
537.82,664.26105
538.028,514.79401
538.235,576.13103
538.442,637.56371
538.65,688.6307
538.857,626.73665
539.065,562.98822
539.272,555.25655
539.479,595.50451
539.687,664.56771
539.894,641.51322
540.101,609.47873
540.309,591.26005
540.516,607.90517
540.723,694.09724
540.93,680.8894
541.137,652.37279
541.345,630.64862
541.552,678.96873
541.759,657.96646
541.966,626.28117
542.173,594.47434
542.38,691.06526
542.587,529.69186
542.794,662.47637
543.001,596.32102
543.209,702.71851
543.416,705.19338
543.622,687.77024
543.829,586.93893
544.036,698.40209
544.243,681.05987
544.45,566.4361
544.657,635.38552
544.864,610.60364
545.071,570.88598
545.278,678.64115
545.485,592.0255
545.691,643.95901
545.898,699.19661
546.105,641.19429
546.312,634.57285
546.518,694.97115
546.725,632.73158
546.932,594.24254
547.139,645.93092
547.345,683.52489
547.552,639.1817
547.758,664.1643
547.965,574.84029
548.172,578.09147
548.378,706.44551
548.585,731.38136
548.791,587.08802
548.998,656.52095
549.204,582.95537
549.411,648.25626
549.617,647.47695
549.824,685.91846
550.03,672.41326
550.237,646.3204
550.443,705.04758
550.649,626.79356
550.856,694.04306
551.062,699.3694
551.268,709.77348
551.475,751.93995
551.681,727.19455
551.887,619.173
552.094,703.54822
552.3,689.18158
552.506,540.13583
552.712,647.06531
552.918,742.97448
553.125,651.42996
553.331,714.98281
553.537,633.04861
553.743,659.49973
553.949,596.69114
554.155,643.937
554.361,752.28407
554.567,654.72668
554.773,604.95705
554.979,649.33016
555.185,654.32599
555.391,808.03424
555.597,730.38621
555.803,658.2354
556.009,791.78836
556.215,606.61885
556.421,568.06671
556.627,736.6243
556.833,671.7624
557.038,611.371
557.244,671.29209
557.45,682.82619
557.656,713.06972
557.862,631.6377
558.067,588.41112
558.273,613.16193
558.479,676.37691
558.685,664.79969
558.89,671.52331
559.096,616.84041
559.301,742.44011
559.507,735.26317
559.713,561.79039
559.918,722.44599
560.124,794.98343
560.329,668.94147
560.535,657.03831
560.74,572.53156
560.946,683.39838
561.151,775.69719
561.357,677.77099
561.562,635.07959
561.768,697.36509
561.973,704.05276
562.179,745.17678
562.384,738.756
562.589,689.14596
562.795,682.6017
563,704.29024
563.205,702.29308
563.411,749.21883
563.616,814.12545
563.821,669.93484
564.026,714.64245
564.231,766.56635
564.437,753.37166
564.642,765.83883
564.847,674.2767
565.052,737.97652
565.257,618.99342
565.462,691.51233
565.668,698.18026
565.873,724.38138
566.078,769.65146
566.283,681.96181
566.488,677.68274
566.693,756.2088
566.898,699.62544
567.103,802.51688
567.308,730.55604
567.513,760.46435
567.717,689.12213
567.922,716.6249
568.127,814.0358
568.332,772.72345
568.537,778.66601
568.742,647.49116
568.947,748.99493
569.151,715.01172
569.356,771.93742
569.561,726.40906
569.766,796.90099
569.97,748.11709
570.175,756.95094
570.38,701.06062
570.584,710.33893
570.789,705.28161
570.994,742.9634
571.198,766.67857
571.403,742.38579
571.608,669.26274
571.812,728.02907
572.017,692.57743
572.221,772.43886
572.426,663.50068
572.63,699.19828
572.835,764.94328
573.039,730.30316
573.244,783.40516
573.448,794.92846
573.652,705.29367
573.857,724.88214
574.061,740.80481
574.265,703.9122
574.47,677.40999
574.674,686.58438
574.878,774.34244
575.083,761.64577
575.287,777.64809
575.491,728.4121
575.695,732.67675
575.9,748.32872
576.104,616.62369
576.308,693.92554
576.512,758.72991
576.716,675.13623
576.921,697.57353
577.125,703.00403
577.329,694.38786
577.533,716.34193
577.737,752.18033
577.941,716.58846
578.145,764.60778
578.349,678.22839
578.553,752.47187
578.757,642.58665
578.961,707.63318
579.165,807.91568
579.369,712.93882
579.573,707.17351
579.776,697.50105
579.98,699.19017
580.184,786.17191
580.388,645.01846
580.592,679.36581
580.796,815.03686
580.999,653.42061
581.203,697.96581
581.407,713.71425
581.611,706.47894
581.814,657.58138
582.018,620.38344
582.222,721.16692
582.425,776.98833
582.629,712.2863
582.833,693.34929
583.036,766.4
583.24,690.28922
583.443,700.51338
583.647,790.77564
583.85,692.6322
584.054,706.23711
584.257,664.73338
584.461,668.11298
584.664,651.35713
584.868,632.35065
585.071,716.99047
585.275,738.01404
585.478,707.01265
585.681,711.06236
585.885,692.71093
586.088,736.75554
586.291,691.48974
586.495,723.15621
586.698,614.64257
586.901,809.35034
587.105,696.30554
587.308,759.95837
587.511,699.59767
587.714,611.46493
587.917,690.09517
588.121,732.23315
588.324,643.77052
588.527,727.70679
588.73,595.32062
588.933,633.35135
589.136,614.05922
589.339,582.66019
589.542,661.08552
589.745,666.70939
589.948,714.94468
590.151,679.58764
590.354,660.92704
590.557,612.08797
590.76,555.97832
590.963,652.87029
591.166,783.52066
591.369,648.82193
591.572,692.8412
591.775,666.92507
591.978,660.09599
592.18,692.57497
592.383,686.24358
592.586,714.81113
592.789,671.83419
592.991,672.21103
593.194,655.78488
593.397,646.46204
593.6,629.2739
593.802,717.2643
594.005,641.78848
594.208,664.98347
594.41,627.20415
594.613,543.33588
594.815,642.6128
595.018,712.6845
595.221,643.25021
595.423,686.69223
595.626,681.13698
595.828,577.40426
596.031,680.18625
596.233,634.75883
596.436,694.19603
596.638,605.89116
596.84,637.83692
597.043,568.89078
597.245,652.17839
597.448,666.52529
597.65,737.28963
597.852,651.64723
598.055,767.69921
598.257,656.69867
598.459,600.4036
598.662,629.42512
598.864,674.42599
599.066,686.22119
599.268,717.87725
599.47,642.3288
599.673,536.88735
599.875,644.34994
600.077,640.24929
600.279,601.44219
600.481,568.00028
600.683,632.80176
600.885,661.94946
601.087,624.27773
601.289,650.17099
601.491,695.60205
601.693,613.16266
601.895,634.96373
602.097,618.508
602.299,525.36545
602.501,580.6496
602.703,655.16175
602.905,646.3993
603.107,660.291
603.309,581.69822
603.511,614.06503
603.713,538.8533
603.914,579.83617
604.116,567.54447
604.318,562.5081
604.52,615.64537
604.722,583.71283
604.923,679.30633
605.125,648.34104
605.327,676.72561
605.528,546.92835
605.73,666.45973
605.932,639.0904
606.133,604.57773
606.335,657.88754
606.537,589.79199
606.738,628.51095
606.94,663.66311
607.141,585.40006
607.343,573.78493
607.544,580.23338
607.746,587.64701
607.947,672.48043
608.149,660.16449
608.35,548.16426
608.552,514.41979
608.753,641.93202
608.954,565.81338
609.156,570.18643
609.357,659.37138
609.558,657.81789
609.76,616.95863
609.961,618.33989
610.162,589.31694
610.364,590.00364
610.565,512.62361
610.766,575.02501
610.967,547.46163
611.169,550.20322
611.37,636.39184
611.571,590.18482
611.772,566.79736
611.973,572.3087
612.174,671.18119
612.375,517.42599
612.577,477.71147
612.778,560.70433
612.979,517.83391
613.18,532.84457
613.381,565.85352
613.582,520.24789
613.783,446.6273
613.984,556.85354
614.185,471.39149
614.385,675.70705
614.586,567.07813
614.787,610.33971
614.988,512.70841
615.189,522.31324
615.39,499.18463
615.591,481.54969
615.792,564.12148
615.992,452.61542
616.193,496.18491
616.394,477.79048
616.595,581.12487
616.795,502.67846
616.996,523.68115
617.197,566.00947
617.397,546.88613
617.598,536.28543
617.799,532.01885
617.999,462.01872
618.2,534.43132
618.4,550.08076
618.601,543.68811
618.802,576.6454
619.002,597.4595
619.203,459.91528
619.403,531.13008
619.604,500.76228
619.804,536.19415
620.005,545.88005
620.205,435.91217
620.405,524.71013
620.606,570.27348
620.806,463.48765
621.007,600.34362
621.207,394.67115
621.407,467.66648
621.608,448.40865
621.808,473.1781
622.008,457.59294
622.208,484.86529
622.409,476.3191
622.609,581.82105
622.809,494.52085
623.009,497.11328
623.21,507.82531
623.41,503.01593
623.61,589.9386
623.81,590.29652
624.01,435.01038
624.21,502.90254
624.41,432.07831
624.61,486.84454
624.81,517.74367
625.01,508.58039
625.21,460.07245
625.41,451.29993
625.61,471.67595
625.81,543.23732
626.01,536.24092
626.21,513.65816
626.41,529.93615
626.61,544.77256
626.81,499.67259
627.01,652.21564
627.21,514.1479
627.409,455.0809
627.609,448.64974
627.809,526.13835
628.009,484.55902
628.208,461.62684
628.408,485.33747
628.608,480.99508
628.808,442.6293
629.007,532.85637
629.207,416.79704
629.407,438.65873
629.606,503.54143
629.806,442.74985
630.006,480.56988
630.205,525.62317
630.405,578.11173
630.604,431.78856
630.804,410.25035
631.003,427.49588
631.203,442.01221
631.402,387.94327
631.602,501.69966
631.801,442.75564
632.001,411.34852
632.2,343.26883
632.399,446.64464
632.599,447.66398
632.798,461.9732
632.998,413.40128
633.197,442.43062
633.396,466.85635
633.595,429.75672
633.795,491.69454
633.994,432.49733
634.193,459.88762
634.392,477.96931
634.592,481.98739
634.791,439.85855
634.99,449.36013
635.189,432.75495
635.388,429.98097
635.588,440.66296
635.787,508.05955
635.986,462.96338
636.185,490.07302
636.384,434.36715
636.583,511.34113
636.782,457.47537
636.981,499.25553
637.18,478.71835
637.379,520.79723
637.578,403.08504
637.777,507.27525
637.976,370.06985
638.175,494.28868
638.374,458.04975
638.572,466.85635
638.771,478.8363
638.97,503.39116
639.169,432.88419
639.368,495.33796
639.567,544.1981
639.765,422.59717
639.964,449.37949
640.163,537.22429
640.362,531.96008
640.56,430.69153
640.759,454.73162
640.958,403.13072
641.156,451.83002
641.355,505.53821
641.554,450.53193
641.752,449.85464
641.951,463.10282
642.149,426.39595
642.348,527.9187
642.546,487.21657
642.745,428.10942
642.943,483.64831
643.142,463.64131
643.34,543.5829
643.539,486.83826
643.737,411.92291
643.936,544.89643
644.134,489.66305
644.333,435.47089
644.531,457.21529
644.729,414.265
644.928,450.83629
645.126,403.5519
645.324,486.8749
645.523,445.02086
645.721,390.67549
645.919,524.94234
646.117,382.66315
646.316,453.09528
646.514,417.33439
646.712,534.07453
646.91,519.61867
647.108,465.72688
647.306,434.91795
647.505,435.65826
647.703,490.82436
647.901,424.68906
648.099,505.72876
648.297,374.56047
648.495,399.90652
648.693,447.12073
648.891,410.46492
649.089,507.49703
649.287,400.91634
649.485,347.23397
649.683,445.51469
649.881,457.05806
650.079,438.40423
650.276,448.18283
650.474,350.97993
650.672,499.93174
650.87,448.2265
651.068,532.84734
651.266,435.11389
651.463,509.87031
651.661,503.43477
651.859,463.2956
652.057,480.89462
652.254,472.97844
652.452,408.73843
652.65,360.39057
652.847,502.87121
653.045,437.63691
653.243,479.61194
653.44,523.74584
653.638,470.71874
653.836,429.3677
654.033,411.60592
654.231,440.21122
654.428,406.52057
654.626,446.20235
654.823,411.84122
655.021,367.86527
655.218,438.77321
655.416,418.67803
655.613,393.66676
655.811,396.20133
656.008,421.55375
656.205,367.88715
656.403,384.37233
656.6,478.33905
656.797,358.44168
656.995,336.18505
657.192,404.6564
657.389,503.06551
657.587,399.84534
657.784,474.45723
657.981,424.58645
658.178,461.66192
658.375,401.26312
658.573,415.85811
658.77,351.98601
658.967,370.60072
659.164,424.42313
659.361,371.67057
659.558,381.43069
659.755,456.42433
659.953,366.75087
660.15,458.40877
660.347,340.46546
660.544,372.29339
660.741,445.0129
660.938,351.06633
661.135,360.49594
661.332,323.83873
661.528,410.3245
661.725,426.52625
661.922,354.82442
662.119,384.66322
662.316,386.3655
662.513,261.56697
662.71,262.8682
662.907,328.23445
663.103,347.90625
663.3,324.51141
663.497,348.5484
663.694,331.7337
663.89,365.32713
664.087,316.47585
664.284,356.91747
664.481,392.18886
664.677,389.3314
664.874,366.43194
665.071,308.4325
665.267,224.91606
665.464,323.75223
665.66,337.87978
665.857,418.62796
666.054,338.91029
666.25,439.13173
666.447,388.18713
666.643,331.98478
666.84,353.08071
667.036,334.95791
667.233,451.94642
667.429,379.11336
667.625,366.8764
667.822,246.3455
668.018,295.63969
668.215,311.33335
668.411,330.62438
668.607,305.84478
668.804,258.31255
669,365.68579
669.196,356.74509
669.392,260.97494
669.589,353.82599
669.785,344.75896
669.981,331.3558
670.177,394.33504
670.374,354.52928
670.57,388.56202
670.766,298.56551
670.962,313.30262
671.158,303.82709
671.354,345.48199
671.55,306.54282
671.746,364.14525
671.943,258.09831
672.139,330.97707
672.335,268.70014
672.531,309.08187
672.727,366.9093
672.923,362.66378
673.119,269.86018
673.315,378.91929
673.51,390.85872
673.706,406.27967
673.902,286.78008
674.098,361.80633
674.294,320.1505
674.49,334.37727
674.686,316.12959
674.882,271.93964
675.077,272.16515
675.273,305.90929
675.469,377.70032
675.665,391.19258
675.86,466.50158
676.056,293.49735
676.252,310.5508
676.447,408.86397
676.643,338.07659
676.839,382.63136
677.034,303.39338
677.23,289.14272
677.426,338.70495
677.621,300.53755
677.817,404.31429
678.012,358.55787
678.208,348.0954
678.403,351.2794
678.599,327.40643
678.794,401.70729
678.99,290.10095
679.185,338.45702
679.381,328.56344
679.576,358.0503
679.772,382.28843
679.967,447.66266
680.162,406.12537
680.358,445.39781
680.553,403.24356
680.748,351.87912
680.944,335.23122
681.139,402.09378
681.334,364.31053
681.529,424.03486
681.725,393.74911
681.92,-211.40331
682.115,448.51367
682.31,409.52086
682.506,410.17777
682.701,426.52625
682.896,366.09961
683.091,411.93378
683.286,357.57992
683.481,388.82725
683.676,386.70958
683.871,415.75296
684.066,341.73359
684.261,413.68294
684.456,377.50249
684.651,354.83602
684.846,260.07196
685.041,329.94508
685.236,372.03685
685.431,384.61987
685.626,476.16251
685.821,381.84142
686.016,276.74104
686.211,406.26985
686.406,326.44674
686.6,352.10569
686.795,251.44991
686.99,390.0116
687.185,397.88533
687.38,256.0972
687.574,349.70597
687.769,373.59681
687.964,281.92054
688.158,295.34331
688.353,281.49699
688.548,299.72336
688.742,303.01209
688.937,312.31143
689.132,346.98436
689.326,241.16194
689.521,273.59136
689.716,277.24091
689.91,243.62204
690.105,295.72824
690.299,307.67391
690.494,349.09259
690.688,283.25943
690.883,319.54621
691.077,300.90405
691.271,316.54397
691.466,314.6881
691.66,192.6453
691.855,273.63695
692.049,310.80457
692.243,258.46875
692.438,217.25447
692.632,175.8312
692.826,199.36234
693.021,223.09721
693.215,188.43428
693.409,268.9448
693.604,393.83787
693.798,293.22821
693.992,269.48209
694.186,245.2807
694.38,230.75428
694.575,196.29962
694.769,225.47299
694.963,274.4093
695.157,154.76484
695.351,225.36653
695.545,147.06855
695.739,212.18739
695.933,213.11407
696.127,206.22228
696.321,237.0474
696.515,272.10828
696.709,268.49008
696.903,227.29095
697.097,275.86047
697.291,208.64535
697.485,211.86215
697.679,245.73556
697.873,227.30845
698.067,172.68741
698.261,225.38384
698.454,266.25648
698.648,215.53933
698.842,202.36895
699.036,299.07344
699.23,268.38698
699.423,242.68224
699.617,236.5555
699.811,282.35264
700.005,301.7864
700.198,158.11558
700.392,223.07473
700.586,240.21596
700.779,249.90582
700.973,226.17061
701.166,271.49237
701.36,268.18016
701.554,207.02134
701.747,149.90035
701.941,181.70905
702.134,183.84167
702.328,311.84875
702.521,143.82162
702.715,261.39235
702.908,258.80766
703.102,285.32625
703.295,181.32348
703.489,115.21193
703.682,289.55977
703.875,139.47344
704.069,144.98238
704.262,91.26252
704.455,217.46196
704.649,204.75538
704.842,225.24145
705.035,153.62333
705.229,189.6491
705.422,213.00137
705.615,188.72356
705.808,286.03718
706.002,188.2826
706.195,177.1303
706.388,258.72041
706.581,162.966
706.774,134.50471
706.967,166.82435
707.161,229.37689
707.354,91.44844
707.547,233.49494
707.74,135.12596
707.933,133.63453
708.126,233.56006
708.319,171.49333
708.512,220.3722
708.705,152.59046
708.898,167.94077
709.091,190.08993
709.284,325.04587
709.477,137.21731
709.67,213.19617
709.862,191.66919
710.055,217.83329
710.248,177.1616
710.441,136.77228
710.634,219.18266
710.827,117.15874
711.019,224.8398
711.212,170.99468
711.405,219.29197
711.598,222.31454
711.79,140.85045
711.983,159.97829
712.176,165.43462
712.369,261.08378
712.561,192.59479
712.754,229.67595
712.946,225.81996
713.139,202.49376
713.332,228.27332
713.524,234.82518
713.717,185.12244
713.909,189.52378
714.102,151.89531
714.294,225.18913
714.487,129.47247
714.679,217.93447
714.872,185.86331
715.064,184.88035
715.257,194.73417
715.449,144.66041
715.642,224.89055
715.834,144.57131
716.026,227.04611
716.219,193.07622
716.411,124.3663
716.603,190.2737
716.796,182.47321
716.988,167.6355
717.18,-170.99551
717.373,150.9957
717.565,211.52188
717.757,206.88464
717.949,191.99591
718.142,123.78598
718.334,182.65873
718.526,200.29904
718.718,74.61421
718.91,150.34694
719.102,191.0745
719.294,184.7239
719.486,102.33406
719.679,203.75855
719.871,177.12055
720.063,139.85157
720.255,134.87795
720.447,97.01533
720.639,172.05455
720.831,153.76504
721.023,86.09604
721.215,113.43388
721.406,194.36877
721.598,171.46378
721.79,180.33373
721.982,179.24027
722.174,200.66151
722.366,238.67237
722.558,171.705
722.75,228.27332
722.941,295.80482
723.133,165.24503
723.325,65.48939
723.517,201.22057
723.708,204.47389
723.9,275.89045
724.092,177.88655
724.284,200.12775
724.475,180.17979
724.667,132.32833
724.858,190.2157
725.05,157.93931
725.242,170.71089
725.433,122.89334
725.625,78.31326
725.816,174.01135
726.008,161.73624
726.2,115.37991
726.391,139.84079
726.583,130.83935
726.774,126.32167
726.966,160.95205
727.157,114.00313
727.348,192.83324
727.54,211.03505
727.731,191.36147
727.923,159.18981
728.114,150.88423
728.305,90.86257
728.497,237.58838
728.688,239.38968
728.879,129.06642
729.071,265.01269
729.262,171.705
729.453,118.76309
729.644,54.11026
729.836,7.77903
730.027,208.62406
730.218,119.08269
730.409,98.9674
730.6,139.69915
730.792,182.8146
730.983,117.8054
731.174,153.79906
731.365,277.38775
731.556,147.09911
731.747,110.3721
731.938,161.03938
732.129,199.53696
732.32,158.96173
732.511,99.18788
732.702,111.97705
732.893,194.11081
733.084,166.50039
733.275,215.27408
733.466,165.10651
733.657,228.20517
733.848,135.6251
734.039,151.99673
734.23,144.95555
734.42,195.1281
734.611,194.83895
734.802,88.00118
734.993,107.94687
735.184,115.70616
735.374,199.21604
735.565,122.09465
735.756,73.17103
735.947,90.03395
736.137,159.58414
736.328,115.24979
736.519,132.76385
736.709,170.42974
736.9,79.286
737.091,132.18208
737.281,155.81681
737.472,47.30503
737.662,71.75674
737.853,123.52084
738.044,113.3541
738.234,180.80406
738.425,181.73077
738.615,74.67134
738.806,186.72066
738.996,151.14733
739.187,188.6923
739.377,201.88871
739.567,144.0322
739.758,181.84429
739.948,91.84469
740.139,171.78486
740.329,159.70797
740.519,212.64795
740.71,80.8642
740.9,84.57166
741.09,153.89577
741.281,162.26816
741.471,251.6277
741.661,119.61284
741.851,218.6688
742.042,142.68602
742.232,86.80669
742.422,169.83795
742.612,111.31005
742.802,68.27593
742.992,93.67641
743.182,204.58066
743.373,253.4615
743.563,171.40868
743.753,37.45109
743.943,142.7192
744.133,91.31138
744.323,237.16945
744.513,109.09652
744.703,105.14271
744.893,153.35662
745.083,181.68833
745.273,63.93338
745.463,204.32038
745.653,145.23985
745.843,172.25443
746.033,96.42059
746.222,129.16602
746.412,52.07393
746.602,91.18859
746.792,133.42718
746.982,196.7851
747.172,160.0525
747.361,136.68122
747.551,125.70574
747.741,157.463
747.931,194.36742
748.12,189.21472
748.31,140.57881
748.5,99.61339
748.689,80.4763
748.879,104.95515
749.069,202.67505
749.258,186.89063
749.448,187.03614
749.637,145.56096
749.827,64.1959
750.017,110.9053
750.206,110.64285
750.396,110.43179
750.585,161.60869
750.775,78.37347
750.964,129.37411
751.154,76.092
751.343,118.54542
751.533,146.3805
751.722,56.91203
751.911,98.08515
752.101,174.83091
752.29,107.53209
752.479,122.0852
752.669,148.08087
752.858,134.98253
753.047,156.14225
753.237,146.9624
753.426,170.76409
753.615,203.21692
753.805,153.29485
753.994,114.78452
754.183,126.70607
754.372,120.54435
754.561,221.36164
754.751,150.92594
754.94,168.4818
755.129,208.70572
755.318,186.66726
755.507,181.13108
755.696,139.52512
755.885,136.87218
756.074,166.62987
756.263,186.43896
756.452,84.8392
756.641,29.46875
756.83,112.55504
757.019,165.51457
757.208,109.50215
757.397,168.46867
757.586,186.21067
757.775,157.54901
757.964,64.46377
758.153,192.13073
758.342,45.94965
758.531,151.75661
758.72,192.78529
758.908,114.35474
759.097,202.88739
759.286,161.15217
759.475,69.2733
759.664,168.84196
759.852,139.76413
760.041,141.29812
760.23,114.87362
760.419,159.91127
760.607,187.9265
760.796,160.77095
760.985,137.5656
761.173,179.98974
761.362,172.7653
761.55,154.54401
761.739,235.12244
761.928,131.09218
762.116,104.48255
762.305,65.60515
762.493,88.29083
762.682,173.5432
762.87,44.12633
763.059,119.24905
763.247,73.68478
763.436,116.3817
763.624,94.04262
763.813,117.5954
764.001,97.03436
764.189,130.0015
764.378,170.52103
764.566,117.18437
764.755,104.03423
764.943,118.26191
765.131,85.11369
765.319,74.55822
765.508,75.5597
765.696,58.78353
765.884,97.65896
766.073,137.93866
766.261,149.86034
766.449,174.41538
766.637,122.76082
766.825,103.20142
767.013,-8.64969
767.202,163.39804
767.39,75.71173
767.578,122.70332
767.766,95.45758
767.954,115.9883
768.142,21.02976
768.33,222.46807
768.518,153.17375
768.706,120.24702
768.894,133.883
769.082,88.99657
769.27,36.11297
769.458,-7.29365
769.646,114.05801
769.834,146.25465
770.022,154.61651
770.21,95.21424
770.398,155.49373
770.586,148.20812
770.774,98.6487
770.961,89.51601
771.149,43.71361
771.337,128.71176
771.525,61.55319
771.713,37.94226
771.9,95.86235
772.088,87.19651
772.276,79.16189
772.464,60.63441
772.651,111.04333
772.839,46.43143
773.027,161.97615
773.214,119.45883
773.402,4.59104
773.59,4.13068
773.777,109.24099
773.965,176.03228
774.152,94.8313
774.34,70.73628
774.527,135.7729
774.715,-4.77971
774.903,63.40095
775.09,93.58581
775.278,92.71547
775.465,120.72298
775.652,101.07534
775.84,74.8214
776.027,154.26852
776.215,73.02772
776.402,159.45064
776.59,95.91457
776.777,137.39311
776.964,181.95918
777.152,180.18743
777.339,72.06292
777.526,135.04973
777.713,33.16792
777.901,98.7103
778.088,68.62559
778.275,109.17283
778.462,-7.06456
778.65,54.26099
778.837,-24.44366
779.024,57.70415
779.211,57.50241
779.398,165.02346
779.586,114.78858
779.773,163.6394
779.96,64.76226
780.147,-31.28906
780.334,86.75306
780.521,24.25755
780.708,115.43831
780.895,70.74731
781.082,49.65269
781.269,96.14307
781.456,14.40842
781.643,92.54476
781.83,83.79531
782.017,16.00927
782.204,8.70321
782.391,146.19771
782.578,26.54523
782.764,79.93431
782.951,24.95294
783.138,14.19321
783.325,107.84437
783.512,90.05757
783.699,170.52103
783.885,79.84717
784.072,59.97688
784.259,103.28997
784.446,105.17617
784.632,109.31802
784.819,81.29996
785.006,48.78411
785.192,103.31421
785.379,67.12589
785.566,2.76126
785.752,92.83892
785.939,120.36026
786.126,82.05011
786.312,-18.02771
786.499,163.05645
786.685,175.88682
786.872,-11.40872
787.058,-5.69914
787.245,172.83641
787.431,74.22276
787.618,31.37897
787.804,39.14739
787.991,9.17299
788.177,97.99388
788.364,51.53305
788.55,141.4311
788.736,128.81268
788.923,32.73888
789.109,104.04903
789.296,138.45862
789.482,95.39336
789.668,39.83649
789.854,44.89504
790.041,101.50895
790.227,-31.54456
790.413,141.9666
790.6,44.00054
790.786,62.7986
790.972,64.55885
791.158,112.95945
791.344,13.97223
791.53,118.00776
791.717,66.20043
791.903,103.36282
792.089,27.7204
792.275,94.83872
792.461,97.70528
792.647,39.15959
792.833,99.19853
793.019,122.68631
793.205,132.45033
793.391,38.26554
793.577,9.38942
793.763,34.54682
793.949,80.88697
794.135,106.33628
794.321,103.804
794.507,71.44431
794.693,35.25428
794.879,68.71113
795.065,110.93638
795.251,105.86224
795.436,25.85751
795.622,79.44594
795.808,148.07255
795.994,57.21557
796.18,4.82599
796.365,31.11389
796.551,57.23339
796.737,110.24151
796.923,33.6353
797.108,109.58117
797.294,24.94906
797.48,164.35078
797.665,143.76264
797.851,-22.37489
798.037,79.27931
798.222,65.458
798.408,-57.37082
798.593,-10.50002
798.779,21.52627
798.965,102.32769
799.15,31.3497
799.336,77.12393
799.521,34.12157
799.707,33.42232
799.892,-0.20963
800.078,130.33153
800.263,-32.68119
800.448,40.72903
800.634,70.51319
800.819,0.01904
801.005,56.31883
801.19,100.34183
801.375,107.33713
801.561,117.21177
801.746,86.72606
801.931,10.98555
802.117,136.67582
802.302,182.78605
802.487,137.38238
802.673,100.24786
802.858,125.90092
803.043,123.35011
803.228,160.6456
803.413,73.14276
803.599,174.91267
803.784,109.84951
803.969,151.08355
804.154,178.50864
804.339,30.83779
804.524,153.66772
804.709,209.55314
804.894,85.23651
805.08,187.22053
805.265,116.06389
805.45,203.57194
805.635,294.02718
805.82,176.65594
806.005,118.18865
806.19,150.81999
806.375,207.43454
806.559,150.19377
806.744,128.47184
806.929,132.93872
807.114,128.58141
807.299,139.72079
807.484,74.28389
807.669,37.47987
807.854,104.28665
808.038,94.02801
808.223,137.00463
808.408,104.27857
808.593,174.99471
808.778,136.80832
808.962,136.85087
809.147,118.1163
809.332,82.76523
809.516,95.63398
809.701,91.28747
809.886,75.51852
810.07,10.52545
810.255,84.01733
810.44,80.06938
810.624,143.64975
810.809,107.10039
810.994,87.97803
811.178,103.91083
811.363,-11.8742
811.547,102.23516
811.732,119.41708
811.916,52.45213
812.101,29.06843
812.285,-25.60515
812.47,112.73965
812.654,7.11417
812.839,76.29324
813.023,47.84668
813.207,44.44094
813.392,95.99705
813.576,12.60302
813.76,72.89032
813.945,133.86395
814.129,26.7738
814.313,121.53269
814.498,86.81403
814.682,123.14391
814.866,47.19754
815.051,122.01913
815.235,48.08283
815.419,140.21399
815.603,68.03032
815.787,85.02456
815.972,138.50222
816.156,36.20563
816.34,108.84352
816.524,46.95769
816.708,38.46737
816.892,33.21955
817.076,78.593
817.26,39.40987
817.445,9.62687
817.629,46.27132
817.813,139.97401
817.997,102.46394
818.181,71.00364
818.365,75.68423
818.549,31.16723
818.733,29.32673
818.916,3.22227
819.1,52.46854
819.284,-86.53324
819.468,62.76909
819.652,-55.07796
819.836,38.74757
820.02,79.92806
820.204,104.52291
820.387,37.77535
820.571,99.95509
820.755,35.96268
820.939,82.00511
821.123,94.60265
821.306,138.68729
821.49,70.06145
821.674,27.95578
821.858,106.05768
822.041,57.75382
822.225,132.50236
822.409,-37.02011
822.592,71.72343
822.776,95.3035
822.959,123.12451
823.143,43.73062
823.327,16.04657
823.51,20.40016
823.694,111.20008
823.877,100.3733
824.061,35.71438
824.244,58.6326
824.428,-10.72957
824.611,58.68314
824.795,97.19384
824.978,63.48024
825.162,106.81048
825.345,112.31758
825.529,55.91834
825.712,61.86853
825.895,73.5827
826.079,9.17442
826.262,-3.6399
826.445,38.05157
826.629,9.86867
826.812,57.06717
826.995,77.70228
827.179,-25.83202
827.362,52.88901
827.545,113.33965
827.728,27.48942
827.911,55.66331
828.095,85.91951
828.278,14.91138
828.461,46.74352
828.644,62.82822
828.827,-15.53825
829.01,56.59609
829.194,53.12596
829.377,39.87384
829.56,85.26674
829.743,126.81447
829.926,134.89546
830.109,-10.28813
830.292,68.99928
830.475,59.62696
830.658,29.79375
830.841,114.43018
831.024,110.01279
831.207,-12.57223
831.39,-88.62577
831.573,159.34529
831.756,79.80578
831.939,1.16329
832.121,15.81027
832.304,39.6636
832.487,41.69841
832.67,78.8713
832.853,-29.48732
833.036,66.98657
833.218,-11.87881
833.401,103.42788
833.584,137.53247
833.767,46.49648
833.949,64.87879
834.132,-29.27441
834.315,25.65886
834.498,88.05407
834.68,81.87279
834.863,113.16443
835.045,39.65737
835.228,38.77809
835.411,22.47446
835.593,56.39379
835.776,-63.99881
835.958,-72.67516
836.141,28.1979
836.324,60.04724
836.506,28.44923
836.689,59.16891
836.871,40.56051
837.054,50.1762
837.236,67.1522
837.419,15.81891
837.601,-2.95703
837.783,-75.8211
837.966,59.8043
838.148,5.74285
838.331,95.37835
838.513,35.05294
838.695,30.46859
838.878,27.74863
839.06,21.30419
839.242,52.91378
839.425,24.76874
839.607,19.71185
839.789,-22.3922
839.971,82.74304
840.154,119.78737
840.336,57.49792
840.518,153.37985
840.7,10.778
840.882,48.38344
841.065,104.36808
841.247,111.7105
841.429,14.88927
841.611,-65.13317
841.793,80.00955
841.975,7.57777
842.157,-19.4183
842.339,-28.09902
842.521,80.41682
842.703,113.31281
842.885,23.38148
843.067,46.04973
843.249,-26.52897
843.431,-7.3027
843.613,30.71182
843.795,10.55573
843.977,135.60344
844.159,20.39379
844.341,-6.16144
844.523,30.22562
844.705,83.46232
844.887,7.57304
845.068,-1.81177
845.25,79.76186
845.432,95.202
845.614,57.73121
845.796,18.3355
845.977,15.12859
846.159,69.0047
846.341,-36.11619
846.523,55.02874
846.704,148.64681
846.886,-2.26879
847.068,86.90948
847.249,-18.05845
847.431,111.19133
847.613,66.02862
847.794,131.99336
847.976,84.78247
848.157,24.75128
848.339,37.59364
848.521,42.83591
848.702,162.05397
848.884,48.63161
849.065,-29.0477
849.247,68.99386
849.428,83.96646
849.61,37.37641
849.791,94.09425
849.973,111.52565
850.154,-57.61755
850.335,-22.86931
850.517,34.15359
850.698,24.07398
850.88,41.94367
851.061,-14.39853
851.242,-26.31438
851.424,-17.82817
851.605,47.91785
851.786,47.86908
851.968,-5.93668
852.149,84.14905
852.33,-51.19204
852.511,-36.5881
852.693,-8.90944
852.874,-9.82381
853.055,42.38825
853.236,-9.59487
853.417,63.7091
853.599,-65.13317
853.78,13.07377
853.961,62.12172
854.142,15.13687
854.323,-100.54176
854.504,55.70257
854.685,-41.88024
854.866,39.87696
855.047,31.40106
855.228,117.96489
855.409,72.1867
855.59,-24.25075
855.771,93.55481
855.952,69.69145
856.133,19.93764
856.314,58.96777
856.495,-48.48016
856.676,47.22716
856.857,-12.56244
857.038,10.79151
857.219,12.85083
857.4,-19.43794
857.58,27.96234
857.761,70.90301
857.942,52.93035
858.123,37.8673
858.304,21.76685
858.484,89.4416
858.665,86.49256
858.846,63.71409
859.027,-16.69811
859.207,54.81701
859.388,75.66635
859.569,32.10803
859.749,-12.57321
859.93,46.1149
860.111,16.73589
860.291,5.51824
860.472,35.99366
860.653,-31.58144
860.833,21.77025
861.014,-19.90992
861.194,94.92063
861.375,73.15946
861.555,5.51867
861.736,10.78137
861.916,32.08285
862.097,-12.11806
862.277,13.30275
862.458,3.22655
862.638,54.77823
862.819,78.69199
862.999,3.22705
863.179,34.59796
863.36,79.1501
863.54,-103.85167
863.721,-5.24942
863.901,99.33123
864.081,41.72456
864.262,50.91463
864.442,126.51693
864.622,88.79682
864.802,61.71245
864.983,-43.92185
865.163,-104.18084
865.343,23.84498
865.523,37.38818
865.703,55.04607
865.884,-15.77692
866.064,29.81245
866.244,-22.64917
866.424,-13.94507
866.604,37.3442
866.784,43.34446
866.964,9.18016
867.145,55.9359
867.325,-85.51514
867.505,17.65436
867.685,-41.39295
867.865,81.69541
868.045,40.80539
868.225,-12.5644
868.405,-57.62203
868.585,30.26819
868.765,95.15698
868.945,-35.90129
869.125,-31.3646
869.304,41.03115
869.484,-6.16481
869.664,58.72473
869.844,17.65574
870.024,4.83128
870.204,-34.74855
870.384,78.94601
870.563,37.12407
870.743,-9.3652
870.923,-49.18235
871.103,21.79587
871.283,19.49057
871.462,7.81292
871.642,34.61965
871.822,45.38457
872.001,21.08692
872.181,45.65659
872.361,52.77617
872.54,49.75365
872.72,43.56667
872.9,31.42326
873.079,86.53362
873.259,33.73547
873.438,-5.47893
873.618,27.9909
873.798,10.79832
873.977,-2.04143
874.157,64.70082
874.336,1.16411
874.516,-64.23765
874.695,16.74244
874.875,30.26819
875.054,16.75164
875.234,11.70721
875.413,16.51083
875.592,17.87494
875.772,11.01807
875.951,41.27307
876.131,20.86781
876.31,-75.49801
876.489,57.32758
876.669,102.95389
876.848,-10.51393
877.027,-31.57897
877.206,44.72585
877.386,46.32579
877.565,52.7512
877.744,15.13095
877.923,14.00395
878.103,-19.44402
878.282,-72.10617
878.461,-14.63543
878.64,58.75256
878.819,39.4501
878.999,-55.81645
879.178,22.70886
879.357,103.24788
879.536,55.3013
879.715,77.11904
879.894,33.27701
880.073,63.77931
880.252,16.97013
880.431,10.79067
880.61,-37.53605
880.789,-91.94307
880.968,66.74696
881.147,16.97279
881.326,-46.90671
881.505,-28.39628
881.684,114.82245
881.863,-19.227
882.042,-43.91842
882.221,0.70671
882.4,99.83651
882.578,-50.54873
882.757,38.99498
882.936,97.0032
883.115,73.59426
883.294,63.69911
883.473,12.62075
883.651,13.52538
883.83,5.74915
884.009,-9.82918
884.188,131.9829
884.366,-38.88967
884.545,62.33596
884.724,70.14927
884.902,-22.87645
885.081,64.22738
885.26,22.91282
885.438,-29.75558
885.617,108.04776
885.796,4.83166
885.974,-223.64858
886.153,109.61568
886.331,35.53846
886.51,40.84396
886.688,24.98018
886.867,95.42345
887.045,6.43113
887.224,42.18584
887.402,43.78194
887.581,10.54913
887.759,84.33818
887.938,23.60488
888.116,25.65486
888.295,71.72906
888.473,52.26429
888.651,71.50023
888.83,5.97271
889.008,19.93764
889.186,54.79544
889.365,64.20209
889.543,46.77287
889.721,107.60689
889.9,0.24792
890.078,-27.65446
890.256,-37.25466
890.434,76.35917
890.613,10.32348
890.791,110.1255
890.969,-13.0302
891.147,38.03964
891.325,63.25139
891.504,6.88693
891.682,13.9842
891.86,75.19664
892.038,30.48766
892.216,76.35316
892.394,40.77983
892.572,126.22778
892.75,9.17442
892.928,13.9842
893.106,-53.29284
893.284,36.23119
893.462,32.33203
893.64,55.24037
893.818,73.85225
893.996,78.25862
894.174,-34.53849
894.352,21.09683
894.53,-41.3994
894.708,15.13569
894.886,-38.89574
895.064,37.5848
895.242,61.8928
895.42,52.547
895.597,80.59455
895.775,27.77269
895.953,11.70078
896.131,-92.5945
896.309,91.07284
896.486,-49.88113
896.664,-1.12598
896.842,11.24189
897.02,-18.96964
897.197,-17.61027
897.375,34.87334
897.553,-58.06643
897.73,13.76177
897.908,-48.76615
898.086,23.85247
898.263,-37.53605
898.441,-53.5427
898.619,-12.34421
898.796,-35.9321
898.974,30.50683
899.151,24.97823
899.329,63.33612
899.506,61.0107
899.684,-1.58539
899.861,1.39354
900.039,89.51228
900.216,129.31713
900.394,25.21106
900.571,-11.66179
900.749,76.40133
900.926,101.84173
901.104,4.60215
901.281,81.84701
901.458,127.76992
901.636,0.70616
901.813,-42.78005
901.99,74.78005
902.168,62.37025
902.345,-30.63157
902.522,84.56697
902.7,55.89208
902.877,69.87102
903.054,111.90493
903.231,72.70314
903.409,181.50145
903.586,94.41889
903.763,149.53932
903.94,95.51566
904.117,163.14355
904.295,205.58154
904.472,238.22254
904.649,210.56194
904.826,268.07653
905.003,172.81955
905.18,218.23075
905.357,294.2966
905.534,280.12193
905.711,290.21189
905.888,265.62036
906.065,379.20557
906.242,224.42646
906.419,331.50669
906.596,367.89656
906.773,327.27056
906.95,291.91276
907.127,246.94943
907.304,277.87946
907.481,350.48135
907.658,359.93061
907.835,215.2056
908.012,336.57504
908.189,302.67365
908.365,231.95668
908.542,309.40568
908.719,354.3671
908.896,330.37222
909.073,302.53909
909.249,292.12149
909.426,328.75868
909.603,380.95588
909.78,370.7344
909.956,313.56648
910.133,273.46889
910.31,379.95964
910.486,231.5554
910.663,339.39123
910.84,251.50975
911.016,254.50012
911.193,174.25288
911.37,167.507
911.546,126.25034
911.723,80.36486
911.899,125.90463
912.076,121.60076
912.252,132.47189
912.429,177.59606
912.605,120.60056
912.782,39.32117
912.958,163.32121
913.135,149.33873
913.311,25.58552
913.488,87.70814
913.664,96.85119
913.841,144.2901
914.017,35.20516
914.193,207.00957
914.37,132.83468
914.546,109.4781
914.722,92.00123
914.899,44.62105
915.075,59.70648
915.251,65.25995
915.428,124.33126
915.604,105.40486
915.78,104.41653
915.956,107.32707
916.133,117.84391
916.309,37.77535
916.485,127.67936
916.661,48.98993
916.837,45.79586
917.014,66.9076
917.19,3.22352
917.366,67.24752
917.542,11.01031
917.718,27.73992
917.894,-75.92675
918.07,0.70632
918.246,-63.13228
918.422,21.3359
918.599,2.76749
918.775,91.08723
918.951,5.51824
919.127,-1.35596
919.303,-49.63656
919.479,-217.42903
919.655,-114.75708
919.83,6.21044
920.006,28.00195
920.182,-3.64472
920.358,-16.23617
920.534,-11.20714
920.71,44.70475
920.886,-55.60039
921.062,30.7311
921.238,-11.8974
921.413,75.06247
921.589,-65.93765
921.765,-13.94942
921.941,-18.53216
922.117,18.36141
922.292,-64.09849
922.468,66.53892
922.644,16.97146
922.819,13.53915
922.995,37.65295
923.171,48.38725
923.347,-6.4004
923.522,42.88633
923.698,56.64946
923.873,10.78305
924.049,-54.28948
924.225,35.32889
924.4,19.04303
924.576,-2.9612
924.751,-69.5249
924.927,8.95468
925.103,-111.45084
925.278,-8.45746
925.454,-18.08531
925.629,40.83107
925.805,31.18925
925.98,-12.57813
926.155,69.76843
926.331,76.17225
926.506,25.93242
926.682,-18.99037
926.857,72.73015
927.033,49.55587
927.208,-45.99395
927.383,-40.00991
927.559,28.21119
927.734,87.42249
927.909,-45.7899
928.085,34.63871
928.26,24.08911
928.435,6.20361
928.61,28.92353
928.786,25.22886
928.961,77.83735
929.136,39.23337
929.311,-14.41882
929.487,31.89151
929.662,78.51262
929.837,-24.04429
930.012,-21.06394
930.187,71.36124
930.362,-5.02625
930.538,-42.81684
930.713,49.29953
930.888,-36.83425
931.063,80.81737
931.238,18.11796
931.413,-65.66222
931.588,82.14712
931.763,14.21864
931.938,78.95851
932.113,96.42316
932.288,2.53807
932.463,-4.55647
932.638,-77.95195
932.813,68.61174
932.988,-42.53776
933.163,14.44987
933.338,20.41616
933.512,-22.4324
933.687,26.59496
933.862,21.54306
934.037,94.76649
934.212,36.25403
934.387,-4.10401
934.562,91.79609
934.736,91.99608
934.911,6.42912
935.086,27.7334
935.261,-104.26956
935.435,-22.198
935.61,68.7434
935.785,59.37458
935.96,-7.76825
936.134,51.80234
936.309,30.72386
936.484,18.56728
936.658,31.63744
936.833,38.95519
937.007,-84.33079
937.182,36.68064
937.357,76.57004
937.531,56.41153
937.706,-41.3994
937.88,30.48289
938.055,-65.65199
938.229,44.23637
938.404,22.01118
938.578,20.16494
938.753,-3.87859
938.927,7.57718
939.102,-9.37841
939.276,78.92728
939.451,15.60466
939.625,91.83975
939.8,-38.68178
939.974,68.57924
940.148,-13.49768
940.323,21.79587
940.497,-68.84315
940.671,14.22644
940.846,93.37746
941.02,106.7332
941.194,3.22705
941.369,-8.45613
941.543,67.76501
941.717,12.39168
941.891,-27.23714
942.066,49.10533
942.24,-47.15421
942.414,-3.64358
942.588,62.88277
942.762,-112.72159
942.936,-176.62902
943.111,-48.77379
943.285,-6.39738
943.459,2.54006
943.633,41.49231
943.807,-17.14955
943.981,59.88905
944.155,18.11654
944.329,-13.7236
944.503,-48.7891
944.677,-42.78338
944.851,62.41453
945.025,16.28312
945.199,-31.12565
945.373,44.04552
945.547,5.51997
945.721,32.08537
945.895,-19.22851
946.069,-28.15376
946.243,-0.20983
946.417,-7.77008
946.591,-14.17958
946.765,22.71065
946.939,-61.9822
947.112,-28.61208
947.286,-40.48975
947.46,0.24823
947.634,54.55361
947.808,49.55978
947.981,17.43223
948.155,-32.49791
948.329,60.99149
948.503,12.85588
948.676,22.24367
948.85,91.8179
949.024,32.79011
949.197,33.05822
949.371,17.43908
949.545,-2.96144
949.718,-41.41553
949.892,1.39332
950.066,45.87489
950.239,-18.77747
950.413,-11.89273
950.586,79.62708
950.76,-49.45772
950.934,73.71066
951.107,-2.50228
951.281,-43.9596
951.454,-66.83908
951.628,52.08865
951.801,55.77287
951.975,-46.01552
952.148,24.75515
952.322,-38.92922
952.495,-6.85683
952.668,106.50413
952.842,26.14516
953.015,-73.93446
953.189,-32.49029
953.362,117.59084
953.535,-95.69124
953.709,-16.0197
953.882,6.66428
954.055,40.13107
954.229,36.01348
954.402,-51.71798
954.575,75.72607
954.748,30.49723
954.922,92.01789
955.095,12.85386
955.268,-11.20362
955.441,35.10528
955.614,82.21224
955.788,10.10006
955.961,1.62478
956.134,-20.60383
956.307,-65.43311
956.48,-25.63514
956.653,26.81555
956.826,-63.59039
956.999,-0.66858
957.173,-51.51704
957.346,6.89611
957.519,17.20993
957.692,-29.51719
957.865,-40.07555
958.038,18.58476
958.211,-21.05898
958.384,15.144
958.557,-9.14916
958.73,69.52827
958.903,71.21681
959.076,-104.73591
959.248,12.39168
959.421,106.7163
959.594,34.41229
959.767,84.47129
959.94,-45.10577
960.113,39.2241
960.286,-19.22851
960.458,138.98396
960.631,-10.74715
960.804,-0.21007
960.977,-121.10653
961.15,54.59655
961.322,48.17718
961.495,97.79029
961.668,-16.47937
961.841,-50.59213
962.013,-8.45746
962.186,57.43658
962.359,-46.2375
962.531,56.92344
962.704,-45.09518
962.877,-59.96773
963.049,-3.87524
963.222,40.14054
963.394,50.91864
963.567,-36.61091
963.74,-37.77702
963.912,124.43539
964.085,49.35402
964.257,7.34817
964.43,27.05083
964.602,10.79067
964.775,20.40975
964.947,35.53288
965.12,65.14361
965.292,100.75278
965.465,96.59875
965.637,116.55396
965.809,-0.4387
965.982,61.44945
966.154,-81.01038
966.327,-26.05685
966.499,2.07977
966.671,-1.35426
966.844,93.14109
967.016,110.49628
967.188,-29.50108
967.361,73.31929
967.533,129.73416
967.705,43.56324
967.877,-45.27844
968.05,12.38005
968.222,8.02766
968.394,25.89173
968.566,43.76136
968.739,101.17889
968.911,72.92472
969.083,101.33595
969.255,35.98237
969.427,142.34168
969.599,68.98844
969.771,10.32106
969.944,110.1255
970.116,103.8366
970.288,-41.41877
970.46,2.76706
970.632,-8.67574
970.804,84.59355
970.976,70.83042
971.148,17.65022
971.32,64.17183
971.492,41.71474
971.664,9.4121
971.836,70.86944
972.008,43.58382
972.18,-14.8575
972.352,50.86667
972.523,53.19675
972.695,65.57074
972.867,1.62147
973.039,31.41091
973.211,163.85893
973.383,82.44151
973.555,105.87054
973.726,60.94364
973.898,8.2558
974.07,-25.13956
974.242,55.44321
974.414,3.91167
974.585,-16.45492
974.757,10.77129
974.929,77.22639
975.101,51.58556
975.272,24.97628
975.444,130.69334
975.616,82.50773
975.787,22.20896
975.959,49.51298
976.131,73.82318
976.302,54.9942
976.474,135.97533
976.645,106.1827
976.817,24.04766
976.988,102.90534
977.16,-24.88955
977.332,105.87054
977.503,-18.97111
977.675,39.61398
977.846,8.94209
978.018,54.57505
978.189,82.05655
978.361,-41.60252
978.532,21.9837
978.703,-2.49875
978.875,100.24708
979.046,47.64031
979.218,57.52945
979.389,63.46035
979.56,1.39245
979.732,34.61422
979.903,72.73015
980.075,-16.46647
980.246,32.11309
980.417,17.65436
980.588,72.48962
980.76,65.83597
980.931,20.876
981.102,86.28398
981.273,22.26292
981.445,28.68518
981.616,82.6642
981.787,102.15141
981.958,33.26913
982.13,-3.41679
982.301,-75.069
982.472,-21.50557
982.643,4.83128
982.814,-6.39838
982.985,-10.06536
983.156,55.9579
983.327,-24.94572
983.499,-40.52456
983.67,47.24201
983.841,59.2297
984.012,15.14519
984.183,6.43668
984.354,73.4174
984.525,-40.31431
984.696,32.80818
984.867,106.64887
985.038,-36.64245
985.209,-63.1766
985.38,41.3056
985.55,-10.97541
985.721,-11.2089
985.892,-32.93302
986.063,51.6018
986.234,-75.30998
986.405,-34.35515
986.576,125.37151
986.747,44.7541
986.917,49.55978
987.088,42.92017
987.259,21.34094
987.43,-8.2264
987.601,-27.92242
987.771,27.07636
987.942,32.31429
988.113,65.63281
988.283,-10.28491
988.454,20.66806
988.625,80.71524
988.796,9.6495
988.966,98.05831
989.137,-30.88687
989.308,-26.78724
989.478,46.5732
989.649,-34.13122
989.819,64.74179
989.99,25.00371
990.161,52.78869
990.331,30.27771
990.502,-27.94873
990.672,15.61326
990.843,-27.68895
991.013,-72.08928
991.184,79.82466
991.354,4.60251
991.525,65.38815
991.695,78.25243
991.866,10.10801
992.036,59.89852
992.206,-114.7212
992.377,47.73776
992.547,-46.9434
992.718,41.29256
992.888,6.66848
993.058,30.76019
993.229,19.74752
993.399,18.81834
993.569,-14.6469
993.74,-94.02717
993.91,-27.24782
994.08,26.83027
994.251,35.09974
994.421,-34.09114
994.591,40.8601
994.761,36.93577
994.931,32.12574
995.102,53.68436
995.272,-93.40515
995.442,7.12308
995.612,-23.11634
995.782,91.37412
995.953,-13.71823
996.123,37.17078
996.293,-106.30688
996.463,-80.52059
996.633,11.71829
996.803,15.37069
996.973,45.65299
997.143,-27.70848
997.313,-107.28981
997.483,28.903
997.653,-7.77191
997.823,-19.67615
997.993,17.21264
998.163,69.23906
998.333,-1.81547
998.503,55.07213
998.673,7.35742
998.843,-49.8617
999.013,-32.73215
999.183,38.79342
999.353,86.81786
999.523,55.94909
999.692,-0.89788
999.862,-32.51063
1000.032,54.65273
1000.202,5.74509
1000.372,16.06546
1000.542,-47.16528
1000.711,-12.12471
1000.881,23.39615
1001.051,-7.9967
1001.221,-23.12541
1001.39,-8.45613
1001.56,13.7715
1001.73,-8.68795
1001.9,67.05554
1002.069,12.84781
1002.239,67.70589
1002.409,-29.76257
1002.578,59.0098
1002.748,90.95911
1002.917,54.60516
1003.087,55.07649
1003.257,45.44539
1003.426,-26.79987
1003.596,-33.1775
1003.765,-27.67814
1003.935,48.39106
1004.104,-90.62481
1004.274,44.73996
1004.444,-24.02733
1004.613,9.87099
1004.782,90.87257
1004.952,-43.49775
1005.121,-44.41806
1005.291,-13.03836
1005.46,19.96581
1005.63,22.70708
1005.799,81.44055
1005.969,18.11086
1006.138,20.6599
1006.307,-63.14703
1006.477,20.195
1006.646,11.47898
1006.815,-12.35194
1006.985,-12.35776
1007.154,-14.64805
1007.323,22.01636
1007.493,-70.2997
1007.662,12.86196
1007.831,-0.4389
1008,38.52462
1008.17,116.16965
1008.339,29.13442
1008.508,-29.52643
1008.677,-19.91304
1008.846,29.84066
1009.015,51.38894
1009.185,-88.14442
1009.354,62.18047
1009.523,32.57645
1009.692,-76.40861
1009.861,-20.83796
1010.03,-15.10414
1010.199,24.55126
1010.368,44.96557
1010.537,-35.26128
1010.707,14.46008
1010.876,104.35162
1011.045,34.38525
1011.214,5.75051
1011.383,-15.33816
1011.552,-3.41813
1011.72,27.30339
1011.889,-10.29216
1012.058,-39.3754
1012.227,-6.62448
1012.396,1.39464
1012.565,80.07896
1012.734,45.41312
1012.903,-25.42194
1013.072,-29.51719
1013.241,60.80564
1013.409,38.55499
1013.578,30.5309
1013.747,30.29921
1013.916,-65.43311
1014.085,41.06019
1014.254,2.54287
1014.422,41.03115
1014.591,7.3551
1014.76,-108.38541
1014.929,110.3799
1015.097,-16.93116
1015.266,0.01909
1015.435,-33.40396
1015.603,-22.89077
1015.772,-17.84906
1015.941,-32.96905
1016.109,29.11839
1016.278,7.35684
1016.447,56.62273
1016.615,-3.87737
1016.784,33.02434
1016.952,-75.78035
1017.121,-43.27532
1017.289,-12.12661
1017.458,-11.20362
1017.627,31.45054
1017.795,42.41484
1017.964,-9.37325
1018.132,-62.99176
1018.301,21.12676
1018.469,-2.04447
1018.637,59.6835
1018.806,35.33167
1018.974,-3.41813
1019.143,24.99977
1019.311,5.062
1019.48,5.5191
1019.648,-49.87335
1019.816,-48.30014
1019.985,36.25403
1020.153,67.4607
1020.321,75.2857
1020.49,22.02848
1020.658,7.58492
1020.826,6.89503
1020.995,31.17945
1021.163,-77.10199
1021.331,8.49451
1021.499,-52.63451
1021.668,39.00113
1021.836,-10.29055
1022.004,1.39409
1022.172,41.48906
1022.34,-74.62222
1022.509,50.23932
1022.677,-94.23436
1022.845,-29.99178
1023.013,47.70387
1023.181,-15.7868
1023.349,-24.27356
1023.517,-19.23002
1023.685,-48.3077
1023.853,103.26421
1024.021,-5.93994
1024.19,83.08315
1024.358,78.75431
1024.526,-18.08247
1024.694,-135.68293
1024.862,-24.48555
1025.03,64.24766
1025.198,-7.31758
1025.366,6.20653
1025.533,63.33111
1025.701,-16.70858
1025.869,4.59998
1026.037,-39.83067
1026.205,-31.81802
1026.373,-9.37105
1026.541,-23.5839
1026.709,-46.46667
1026.877,-19.9287
1027.044,8.96031
1027.212,67.70053
1027.38,-11.21772
1027.548,37.38229
1027.716,-5.02427
1027.883,-53.7844
1028.051,5.05922
1028.219,57.58381
1028.387,119.83483
1028.554,19.96581
1028.722,-107.673
1028.89,-59.514
1029.058,-10.53129
1029.225,77.59579
1029.393,-4.33377
1029.561,-53.54688
1029.728,41.50209
1029.896,53.42576
1030.063,63.11195
1030.231,75.78009
1030.399,-37.76815
1030.566,-27.47922
1030.734,-25.42794
1030.901,-11.66819
1031.069,27.97769
1031.236,24.32976
1031.404,8.95678
1031.571,8.9596
1031.739,-34.79737
1031.906,0.70649
1032.074,38.77503
1032.241,-31.58391
1032.409,36.25403
1032.576,-59.29407
1032.744,-42.36501
1032.911,-9.13984
1033.078,64.30368
1033.246,77.57735
1033.413,72.7072
1033.58,58.94452
1033.748,-35.4683
1033.915,-82.45661
1034.082,-17.62683
1034.25,-23.10549
1034.417,-33.86208
1034.584,44.72938
1034.752,0.70699
1034.919,-60.19222
1035.086,-14.18959
1035.253,30.49723
1035.421,30.27295
1035.588,-60.88927
1035.755,-33.41179
1035.922,47.27556
1036.089,-10.98403
1036.257,48.65466
1036.424,56.66733
1036.591,92.57143
1036.758,26.87051
1036.925,-9.3762
1037.092,-19.22851
1037.259,11.24189
1037.426,11.71551
1037.593,-13.95707
1037.76,-30.42877
1037.927,73.93993
1038.094,-26.56636
1038.262,-69.32823
1038.429,6.66848
1038.596,26.84928
1038.762,12.63168
1038.929,-45.10224
1039.096,11.48622
1039.263,-30.6698
1039.43,26.16164
1039.597,-11.89646
1039.764,-4.33309
1039.931,41.97334
1040.098,-8.23221
1040.265,54.85164
1040.432,-17.85747
1040.598,-102.49248
1040.765,16.74769
1040.932,-91.5133
1041.099,-24.26784
1041.266,15.15115
1041.432,-14.19517
1041.599,36.47459
1041.766,-52.67571
1041.933,-121.67761
1042.099,-19.21647
1042.266,91.35239
1042.433,46.14773
1042.6,-88.15131
1042.766,9.18304
1042.933,-70.9877
1043.1,16.29719
1043.266,-23.59317
1043.433,27.54125
1043.6,9.64116
1043.766,-11.20714
1043.933,18.81094
1044.099,46.61004
1044.266,1.39398
1044.433,-49.69087
1044.599,2.99863
1044.766,-22.89257
1044.932,-29.99648
1045.099,27.54778
1045.265,-19.92242
1045.432,-50.57237
1045.598,-32.53875
1045.765,11.26226
1045.931,-72.57035
1046.097,-13.7279
