Wavelength,Flux
341.572,-52.32459
341.796,-52.32459
342.021,-52.32459
342.246,-34.88459
342.47,-67.53329
342.695,14.76736
342.919,33.5885
343.144,73.55357
343.368,-22.35271
343.592,-25.08331
343.817,-35.98187
344.041,62.09103
344.266,-42.48876
344.49,23.94979
344.714,-63.21519
344.939,-42.95393
345.163,24.45821
345.387,23.50641
345.611,47.74309
345.836,29.03745
346.06,-4.002
346.284,-80.90857
346.508,-3.55208
346.732,38.28946
346.957,33.68742
347.181,-59.44641
347.405,-26.38649
347.629,-78.45252
347.853,-7.68671
348.077,-48.47563
348.301,-2.6329
348.525,67.50824
348.749,-9.96906
348.973,-39.76011
349.197,-31.02049
349.421,57.07329
349.645,33.1016
349.869,-13.61644
350.092,-2.64059
350.316,45.07528
350.54,43.65866
350.764,59.80747
350.988,41.81997
351.211,28.11749
351.435,46.3957
351.659,31.78041
351.883,55.27294
352.106,51.96729
352.33,63.71484
352.554,-31.48598
352.777,11.59276
353.001,-0.80161
353.224,41.44376
353.448,56.95602
353.672,-42.48876
353.895,46.01396
354.119,40.45238
354.342,58.67303
354.566,59.68485
354.789,-20.05776
355.012,48.29554
355.236,38.10227
355.459,51.93856
355.683,15.66584
355.906,23.43124
356.129,6.07957
356.353,-1.2581
356.576,17.53455
356.799,-29.67871
357.022,-7.21016
357.246,-20.05618
357.469,0.11442
357.692,-3.54902
357.915,-13.1648
358.138,17.53455
358.361,-18.68193
358.585,12.00369
358.808,-9.50765
359.031,-25.05006
359.254,18.94379
359.477,36.30384
359.7,15.68905
359.923,19.3585
360.146,12.02898
360.369,8.36484
360.592,10.64532
360.815,8.36222
361.038,1.94621
361.26,21.66732
361.483,-13.17925
361.706,-36.54119
361.929,59.18999
362.152,59.74122
362.375,1.03198
362.597,36.32378
362.82,-31.05941
363.043,-79.85547
363.265,23.50456
363.488,-44.32602
363.711,-19.56389
363.933,3.78137
364.156,44.59222
364.379,69.2314
364.601,-53.64146
364.824,-61.25699
365.046,-38.9808
365.269,39.072
365.491,7.45708
365.714,-7.21354
365.936,-11.33548
366.159,32.62837
366.381,45.95227
366.604,4.23141
366.826,28.54472
367.048,64.85274
367.271,52.82585
367.493,73.94184
367.715,19.35547
367.938,67.07672
368.16,-16.8291
368.382,26.67366
368.604,20.74398
368.827,25.74818
369.049,45.50498
369.271,-25.04811
369.493,-63.57435
369.715,29.93619
369.937,50.57987
370.16,71.37502
370.382,31.79301
370.604,-49.3622
370.826,26.70295
371.048,40.54534
371.27,-0.34314
371.492,75.3276
371.714,-29.22013
371.936,-13.18965
372.158,-21.4001
372.379,58.44993
372.601,-42.95393
372.823,20.76527
373.045,50.55195
373.267,11.09963
373.489,-19.16929
373.71,-32.37214
373.932,-71.25072
374.154,-55.32772
374.376,-36.11677
374.597,73.35155
374.819,-47.12529
375.041,20.33723
375.262,-4.92875
375.484,24.91732
375.706,60.48703
375.927,43.23128
376.149,117.9578
376.37,68.49433
376.592,13.40972
376.813,63.49198
377.035,-12.27871
377.256,3.78345
377.478,52.83001
377.699,13.3992
377.921,35.85445
378.142,8.81483
378.363,122.72755
378.585,51.44795
378.806,43.16679
379.027,118.37814
379.249,8.8066
379.47,-60.68048
379.691,25.33627
379.912,-1.72059
380.134,99.75033
380.355,6.06906
380.576,-26.00612
380.797,16.18781
381.018,17.08299
381.239,1.03321
381.461,51.10305
381.682,-42.98093
381.903,-19.53964
382.124,74.03546
382.345,85.65905
382.566,-4.01456
382.787,18.8975
383.008,-4.46777
383.229,73.15324
383.45,19.37372
383.671,-3.09886
383.891,42.31123
384.112,22.11007
384.333,-22.30901
384.554,32.69256
384.775,56.59639
384.996,102.90973
385.216,73.94767
385.437,10.18913
385.658,89.8048
385.879,3.32751
386.099,-12.70978
386.32,-9.52189
386.541,-31.54795
386.761,-13.62281
386.982,-64.94029
387.202,-22.71584
387.423,-27.79009
387.644,-73.21426
387.864,49.14277
388.085,-65.42973
388.305,-6.76079
388.526,63.35669
388.746,3.32909
388.966,-46.60036
389.187,12.47541
389.407,40.46511
389.628,61.54485
389.848,-26.01021
390.068,88.55157
390.289,-16.37873
390.509,-34.66397
390.729,24.86224
390.95,-28.7435
391.17,40.86878
391.39,-36.52688
391.61,-26.86852
391.83,21.6605
392.051,35.91669
392.271,-29.66242
392.491,-17.29258
392.711,-19.5761
392.931,26.72612
393.151,23.49715
393.371,11.5781
393.591,35.89964
393.811,-15.00864
394.031,51.06653
394.251,-43.39545
394.471,9.73889
394.691,-37.93156
394.911,70.36126
395.131,14.77777
395.351,-96.25162
395.571,67.44999
395.791,64.63398
396.01,-17.30888
396.23,2.86993
396.45,60.60037
396.67,-40.60754
396.89,-12.70878
397.109,17.06822
397.329,-19.13902
397.549,31.32421
397.768,18.44675
397.988,39.58618
398.208,-14.08745
398.427,-100.23005
398.647,6.52094
398.866,6.54614
399.086,44.1864
399.306,-42.42587
399.525,23.49346
399.745,3.78375
399.964,75.85155
400.183,75.80356
400.403,103.70315
400.622,-76.21852
400.842,0.11457
401.061,-0.80268
401.28,95.96163
401.5,-59.92384
401.719,12.94223
401.938,60.63848
402.158,-15.89811
402.377,-101.52757
402.596,56.14656
402.815,-21.40845
403.035,-0.34387
403.254,58.81554
403.473,100.76327
403.692,-8.58574
403.911,112.14125
404.13,86.80331
404.35,31.20911
404.569,-3.54847
404.788,23.53248
405.007,-86.03201
405.226,-4.91835
405.445,40.96537
405.664,-23.72322
405.883,21.17733
406.102,28.08639
406.321,-0.80312
406.539,45.97397
406.758,53.8352
406.977,-51.67103
407.196,6.53063
407.415,-24.14777
407.634,-124.19821
407.852,-53.91808
408.071,29.02825
408.29,54.2338
408.509,12.02898
408.727,-45.26434
408.946,-73.54092
409.165,29.39231
409.383,45.07528
409.602,4.69284
409.821,-20.48267
410.039,12.9402
410.258,-9.03106
410.476,40.83695
410.695,-46.17819
410.913,-26.02249
411.132,39.11204
411.35,15.25026
411.569,61.08209
411.787,39.456
412.006,-11.34526
412.224,72.54504
412.443,-52.58428
412.661,34.93038
412.879,7.46181
413.098,-18.69519
413.316,-45.70155
413.534,1.48992
413.752,-37.92858
413.971,49.74997
414.189,-70.38945
414.407,-112.83775
414.625,64.33297
414.844,-5.37633
415.062,9.27122
415.28,-35.1575
415.498,-15.02164
415.716,-4.92797
415.934,28.53125
416.152,27.6237
416.37,-11.34615
416.588,30.82171
416.806,-10.8774
417.024,-42.01718
417.242,88.2051
417.46,-12.71975
417.678,62.36303
417.896,90.18059
418.114,41.89931
418.332,-0.34368
418.55,28.54697
418.767,91.09092
418.985,59.29239
419.203,42.75607
419.421,14.79406
419.639,30.8314
419.856,63.50714
420.074,46.42854
420.292,9.28139
420.509,-3.093
420.727,-32.41513
420.945,-9.04513
421.162,-1.26106
421.38,105.26216
421.597,85.78608
421.815,109.73699
422.033,74.65915
422.25,102.09122
422.468,105.44235
422.685,45.93783
422.903,83.51175
423.12,73.82969
423.337,31.70308
423.555,127.66445
423.772,38.49103
423.99,83.45294
424.207,87.77346
424.424,83.02426
424.642,186.20054
424.859,164.01182
425.076,165.32988
425.293,143.30388
425.511,138.42975
425.728,119.20418
425.945,159.59281
426.162,211.97625
426.379,223.78323
426.597,228.50589
426.814,177.15733
427.031,282.82447
427.248,319.76971
427.465,185.06053
427.682,291.94466
427.899,222.6517
428.116,184.42163
428.333,316.49279
428.55,354.34676
428.767,269.59818
428.984,280.85955
429.201,303.65779
429.418,389.27094
429.635,366.12886
429.852,364.48276
430.068,271.95067
430.285,259.13822
430.502,307.8393
430.719,311.97499
430.936,316.36761
431.152,265.03051
431.369,380.77958
431.586,228.01577
431.802,350.9344
432.019,238.40535
432.236,264.32339
432.452,285.69982
432.669,231.73637
432.886,313.88595
433.102,325.5493
433.319,320.97357
433.535,349.09428
433.752,256.27481
433.968,207.46618
434.185,362.78012
434.401,305.70895
434.618,342.65188
434.834,366.8554
435.051,363.30885
435.267,324.00314
435.483,199.09364
435.7,206.67194
435.916,232.85239
436.132,167.40389
436.349,177.4427
436.565,63.69999
436.781,195.36096
436.997,87.95955
437.214,10.17881
437.43,228.17901
437.646,74.70555
437.862,159.74672
438.078,260.85701
438.294,164.63088
438.51,182.41026
438.727,127.31681
438.943,109.46235
439.159,191.75154
439.375,203.37531
439.591,143.68225
439.807,167.7691
440.023,131.17393
440.239,188.02362
440.455,123.20733
440.67,109.67649
440.886,61.41989
441.102,120.35525
441.318,130.10677
441.534,79.32497
441.75,98.39324
441.966,83.81229
442.181,68.22165
442.397,69.27466
442.613,64.14202
442.829,131.22547
443.044,124.14958
443.26,36.22766
443.476,112.73787
443.691,115.92726
443.907,104.49544
444.123,119.08801
444.338,124.93687
444.554,78.42885
444.769,163.73204
444.985,143.33729
445.2,130.64504
445.416,150.16027
445.631,156.43872
445.847,174.25343
446.062,120.05995
446.278,146.1264
446.493,120.51061
446.708,151.72744
446.924,121.52744
447.139,153.69139
447.355,204.44218
447.57,122.52304
447.785,94.12638
448,169.47662
448.216,178.19
448.431,124.3558
448.646,119.94148
448.861,179.21067
449.077,144.84216
449.292,157.79062
449.507,140.41327
449.722,38.9506
449.937,102.71553
450.152,38.05795
450.367,121.84686
450.582,31.68334
450.797,88.07333
451.012,99.1761
451.227,14.76275
451.442,93.924
451.657,122.51425
451.872,189.57123
452.087,140.78515
452.302,14.73191
452.517,130.64504
452.732,113.98454
452.947,140.86259
453.161,28.06652
453.376,77.58708
453.591,83.97591
453.806,68.51604
454.021,48.78882
454.235,7.88016
454.45,15.66705
454.665,74.47038
454.879,6.51588
455.094,76.67144
455.309,40.95888
455.523,-14.5617
455.738,-0.80135
455.952,40.85603
456.167,-74.51506
456.382,26.64254
456.596,60.66718
456.811,44.09591
457.025,57.94962
457.24,-15.47922
457.454,6.53681
457.668,-37.99153
457.883,-60.48759
458.097,28.54697
458.312,-16.42278
458.526,28.45356
458.74,40.07346
458.955,-37.4172
459.169,-0.80287
459.383,-33.34244
459.598,-22.29343
459.812,28.47339
460.026,-11.33548
460.24,57.76793
460.454,30.82413
460.669,0.57274
460.883,24.42528
461.097,73.17657
461.311,17.99
461.525,-3.09567
461.739,27.08293
461.953,-24.19135
462.167,22.56459
462.381,39.12132
462.595,7.90284
462.809,-24.66378
463.023,67.61508
463.237,12.94629
463.451,63.88991
463.665,7.89666
463.879,57.53218
464.093,-32.90717
464.307,6.97687
464.52,19.84464
464.734,11.58267
464.948,46.43586
465.162,-8.5724
465.376,-36.53832
465.589,-63.19021
465.803,29.47065
466.017,79.12307
466.231,0.11443
466.444,-39.68565
466.658,3.31966
466.871,-66.81161
467.085,37.21362
467.299,20.27297
467.512,-8.59247
467.726,-45.22533
467.939,19.85722
468.153,-13.64529
468.366,20.74561
468.58,32.27238
468.793,19.39825
469.007,-41.60455
469.22,-1.7187
469.434,-56.2054
469.647,0.11465
469.86,58.81554
470.074,39.17421
470.287,54.2681
470.5,-3.55854
470.714,-117.98812
470.927,-84.12404
471.14,12.02239
471.353,63.38658
471.567,49.51554
471.78,-25.54366
471.993,93.22179
472.206,47.34118
472.419,60.11905
472.633,70.12939
472.846,32.18832
473.059,30.42608
473.272,75.27428
473.485,44.07177
473.698,13.86698
473.911,6.97416
474.124,24.26155
474.337,30.32564
474.55,35.81524
474.763,126.66105
474.976,39.57052
475.189,11.58176
475.402,102.95868
475.614,29.05593
475.827,16.6403
476.04,52.33506
476.253,51.42374
476.466,-37.00548
476.678,65.69198
476.891,-38.36916
477.104,75.36926
477.317,110.20349
477.529,80.00234
477.742,59.73651
477.955,131.64149
478.167,0.57351
478.38,68.04672
478.593,26.24474
478.805,31.31678
479.018,-55.79511
479.23,106.67578
479.443,-21.81068
479.655,26.1996
479.868,76.62331
480.08,99.2762
480.293,57.95421
480.505,46.42489
480.718,16.13188
480.93,-2.63579
481.143,-20.8808
481.355,0.11441
481.567,23.50827
481.78,78.49034
481.992,-37.84578
482.204,68.47807
482.417,29.42439
482.629,55.17635
482.841,81.25571
483.053,36.7963
483.265,59.37238
483.478,100.61916
483.69,49.61227
483.902,22.53817
484.114,78.577
484.326,43.14657
484.538,9.26042
484.75,-6.76132
484.962,32.13562
485.175,28.0886
485.387,-18.19765
485.599,-6.76238
485.811,-44.15812
486.022,20.2889
486.234,-2.17584
486.446,36.75014
486.658,-11.75979
486.87,11.57446
487.082,33.14067
487.294,39.97861
487.506,0.11455
487.718,5.60799
487.929,6.53012
488.141,28.07755
488.353,-39.28914
488.565,39.17109
488.776,55.9874
488.988,62.97826
489.2,6.52705
489.411,28.54247
489.623,-65.81639
489.835,5.61106
490.046,25.82321
490.258,57.45923
490.47,75.68452
490.681,-14.08524
490.893,11.59184
491.104,-66.24378
491.316,80.69039
491.527,23.46769
491.739,-17.31571
491.95,-41.61766
492.162,-3.09494
492.373,37.22819
492.584,-9.50542
492.796,79.03522
493.007,38.14398
493.218,2.85427
493.43,79.51231
493.641,22.54871
493.852,63.90508
494.064,24.37172
494.275,57.01896
494.486,-26.43151
494.697,-16.39547
494.909,18.91383
495.12,-7.67581
495.331,35.38821
495.542,82.32085
495.753,-11.80097
495.964,-9.49135
496.175,53.30056
496.386,79.11048
496.597,-6.29547
496.808,49.09285
497.019,46.74061
497.23,51.35957
497.441,59.20851
497.652,80.23319
497.863,-6.76451
498.074,43.74851
498.285,45.46214
498.496,70.71914
498.707,104.90038
498.918,26.69666
499.129,114.63724
499.339,-47.93431
499.55,107.97398
499.761,70.83107
499.972,126.3833
500.182,2.85868
500.393,-46.50989
500.604,-9.04867
500.815,61.95417
501.025,10.65951
501.236,146.90025
501.447,20.26504
501.657,27.18258
501.868,-51.16027
502.078,76.70164
502.289,75.83953
502.499,69.33445
502.71,-52.64228
502.92,69.74304
503.131,3.32383
503.341,-73.17409
503.552,58.34361
503.762,60.13318
503.973,5.61326
504.183,2.85913
504.393,27.16329
504.604,6.0743
504.814,16.16349
505.024,41.8529
505.235,101.22205
505.445,0.57176
505.655,19.84464
505.866,-10.41525
506.076,-42.00734
506.286,23.52501
506.496,47.34118
506.706,44.61333
506.917,29.41749
507.127,10.657
507.337,1.02868
507.547,20.24609
507.757,-5.84398
507.967,53.70802
508.177,-3.54653
508.387,7.46004
508.597,100.5318
508.807,-70.88659
509.017,59.3582
509.227,-47.08453
509.437,40.94916
509.647,-40.65827
509.857,-9.04089
510.067,-26.00612
510.277,12.92708
510.486,105.88293
510.696,-55.75144
510.906,74.82245
511.116,7.45413
511.326,67.93946
511.535,7.89974
511.745,-70.75429
511.955,-9.95503
512.165,6.53269
512.374,17.05887
512.584,45.56617
512.794,45.54811
513.003,83.68997
513.213,67.07143
513.422,-31.0643
513.632,63.06838
513.841,34.48336
514.051,40.39857
514.261,106.43994
514.47,0.11448
514.68,21.66391
514.889,42.62289
515.098,42.32794
515.308,15.6952
515.517,71.48389
515.727,19.80413
515.936,56.48918
516.145,-15.9043
516.355,70.23361
516.564,91.31096
516.773,51.81672
516.983,65.09612
517.192,43.61082
517.401,17.08434
517.61,18.42943
517.82,49.09668
518.029,-15.93171
518.238,98.34769
518.447,52.91774
518.656,64.10233
518.865,19.79179
519.074,-33.30073
519.284,28.01621
519.493,65.52268
519.702,99.08844
519.911,88.17724
520.12,42.7763
520.329,-4.46777
520.538,56.4141
520.747,27.15689
520.956,93.33257
521.165,70.30001
521.373,82.34706
521.582,23.45306
521.791,-14.96665
522,77.19619
522.209,18.87685
522.418,77.09898
522.627,-45.2112
522.835,69.88605
523.044,35.3799
523.253,34.45637
523.462,-20.46676
523.67,74.71718
523.879,22.55047
524.088,17.04292
524.296,-22.79349
524.505,78.38601
524.713,22.08932
524.922,65.10626
525.131,43.19386
525.339,132.18188
525.548,98.73193
525.756,-20.95199
525.965,84.8512
526.173,48.21577
526.382,97.67018
526.59,33.49679
526.799,26.2139
527.007,-30.10193
527.215,54.18689
527.424,18.45691
527.632,104.07908
527.841,0.57243
528.049,-15.86989
528.257,-23.68058
528.466,48.63928
528.674,2.40281
528.882,54.58917
529.09,24.39266
529.299,40.46511
529.507,137.84599
529.715,-27.39662
529.923,34.85977
530.131,92.74193
530.339,21.60814
530.547,33.5516
530.756,30.34934
530.964,68.77957
531.172,-73.99324
531.38,42.63938
531.588,67.48172
531.796,12.94527
532.004,65.57366
532.212,5.15791
532.42,16.61145
532.628,18.42943
532.836,51.85711
533.043,6.52858
533.251,50.07806
533.459,47.70587
533.667,36.83411
533.875,112.42172
534.083,-44.27069
534.29,26.69037
534.498,83.4269
534.706,85.52407
534.914,9.73355
535.121,34.91127
535.329,71.11563
535.537,35.40208
535.744,28.52229
535.952,33.08347
536.16,15.71748
536.367,59.70829
536.575,-28.72331
536.783,68.9418
536.99,89.19194
537.198,5.61194
537.405,151.68261
537.613,-62.9928
537.82,111.11915
538.028,-19.55174
538.235,88.86334
538.442,32.70551
538.65,136.45025
538.857,72.4768
539.065,21.18727
539.272,43.07964
539.479,35.83201
539.687,78.52121
539.894,2.86562
540.101,52.80513
540.309,12.49892
540.516,-12.72877
540.723,134.58633
540.93,62.50507
541.137,52.44236
541.345,50.52017
541.552,118.83559
541.759,18.91681
541.966,68.7903
542.173,108.93805
542.38,40.49066
542.587,-63.45551
542.794,98.61553
543.001,-35.16853
543.209,75.79758
543.416,91.46235
543.622,22.59837
543.829,15.21802
544.036,47.83705
544.243,12.0432
544.45,-27.83348
544.657,20.72285
544.864,18.87392
545.071,-30.51729
545.278,79.8572
545.485,-15.9043
545.691,9.2763
545.898,68.45104
546.105,39.51451
546.312,21.63337
546.518,67.49232
546.725,66.44677
546.932,-14.97591
547.139,25.3005
547.345,40.43967
547.552,43.57011
547.758,32.63858
547.965,-38.74608
548.172,21.13628
548.378,55.6084
548.585,116.98734
548.791,-46.97462
548.998,35.82921
549.204,-14.51066
549.411,68.73677
549.617,66.41586
549.824,76.61131
550.03,117.20664
550.237,59.58246
550.443,90.40292
550.649,129.27021
550.856,72.04193
551.062,84.47333
551.268,76.18967
551.475,155.56792
551.681,128.34998
551.887,103.79696
552.094,187.48093
552.3,231.70884
552.506,264.43723
552.712,331.9027
552.918,485.48662
553.125,605.30842
553.331,851.78551
553.537,1054.37351
553.743,1113.33725
553.949,1345.1361
554.155,1530.19424
554.361,1807.95812
554.567,1880.75694
554.773,2075.95217
554.979,2135.3912
555.185,2195.26509
555.391,2373.53904
555.597,2312.16626
555.803,2307.87867
556.009,2425.61464
556.215,2292.49581
556.421,2291.31118
556.627,2391.67063
556.833,2380.48903
557.038,2298.21705
557.244,2319.19711
557.45,2304.43479
557.656,2281.46213
557.862,2177.05118
558.067,2181.01217
558.273,2192.09586
558.479,2195.28701
558.685,2259.02075
558.89,2269.77406
559.096,2209.95193
559.301,2355.73933
559.507,2344.28295
559.713,2265.56511
559.918,2369.34492
560.124,2458.84035
560.329,2286.85361
560.535,2243.77205
560.74,2158.7949
560.946,2200.90932
561.151,2207.43808
561.357,2009.33288
561.562,1951.13493
561.768,1797.46307
561.973,1604.69709
562.179,1580.55265
562.384,1508.44378
562.589,1333.16929
562.795,1248.45239
563,1145.76864
563.205,1097.20972
563.411,1008.26437
563.616,892.03786
563.821,692.19982
564.026,508.66652
564.231,385.7511
564.437,316.53578
564.642,238.24373
564.847,103.75711
565.052,136.90341
565.257,8.79029
565.462,71.93525
565.668,79.23862
565.873,167.88562
566.078,146.7846
566.283,55.84857
566.488,80.50929
566.693,174.04051
566.898,24.83889
567.103,108.80419
567.308,75.16843
567.513,104.13616
567.717,80.13968
567.922,141.35784
568.127,232.55926
568.332,110.07354
568.537,126.17376
568.742,-9.9473
568.947,164.7966
569.151,78.43498
569.356,114.59242
569.561,0.11458
569.766,141.65496
569.97,128.61662
570.175,107.63559
570.38,56.37027
570.584,95.65499
570.789,89.67276
570.994,93.48895
571.198,114.64622
571.403,128.75668
571.608,86.51228
571.812,45.91266
572.017,39.90386
572.221,130.51269
572.426,54.45
572.63,45.41252
572.835,89.03706
573.039,53.64106
573.244,80.30226
573.448,78.48417
573.652,22.54519
573.857,55.00798
574.061,21.63505
574.265,40.41119
574.47,-8.57705
574.674,17.94656
574.878,59.69422
575.083,58.74628
575.287,104.58539
575.491,72.91713
575.695,41.33283
575.9,52.34736
576.104,6.95968
576.308,117.12501
576.512,115.54258
576.716,31.68827
576.921,16.58166
577.125,95.66238
577.329,37.12415
577.533,52.36791
577.737,67.03976
577.941,76.5039
578.145,46.42123
578.349,-47.96046
578.553,23.94791
578.757,39.82705
578.961,18.90639
579.165,94.67035
579.369,92.51019
579.573,61.83854
579.776,84.6602
579.98,26.18536
580.184,132.14026
580.388,100.9604
580.592,61.41989
580.796,138.20547
580.999,90.5643
581.203,101.2253
581.407,112.15876
581.611,98.02801
581.814,70.02086
582.018,141.26292
582.222,114.56559
582.425,175.56028
582.629,171.53223
582.833,216.7455
583.036,337.58304
583.24,436.71609
583.443,518.77778
583.647,776.5286
583.85,840.44404
584.054,1063.61554
584.257,1227.49034
584.461,1447.36922
584.664,1635.40044
584.868,1827.68166
585.071,2037.74329
585.275,2261.2283
585.478,2250.78178
585.681,2299.27456
585.885,2384.19281
586.088,2485.49115
586.291,2489.35431
586.495,2456.40638
586.698,2455.85569
586.901,2603.50446
587.105,2508.14069
587.308,2530.38756
587.511,2481.17599
587.714,2376.44509
587.917,2340.8258
588.121,2437.79574
588.324,2324.07492
588.527,2338.68882
588.73,2219.59821
588.933,2350.13081
589.136,2272.5428
589.339,2336.74245
589.542,2361.14997
589.745,2370.02779
589.948,2457.89891
590.151,2407.6898
590.354,2359.00863
590.557,2292.34442
590.76,2311.44248
590.963,2261.89283
591.166,2367.62816
591.369,2209.13494
591.572,2285.07414
591.775,2133.6458
591.978,2050.41676
592.18,1871.52532
592.383,1632.18385
592.586,1560.63654
592.789,1415.59772
592.991,1369.74684
593.194,1331.86196
593.397,1269.52372
593.6,1115.18429
593.802,1057.86488
594.005,923.03466
594.208,785.33129
594.41,631.11003
594.613,440.28413
594.815,352.18662
595.018,344.55262
595.221,130.44182
595.423,174.83087
595.626,71.18826
595.828,27.08503
596.031,100.86285
596.233,59.6149
596.436,81.21106
596.638,121.61141
596.84,74.77553
597.043,101.43146
597.245,127.2378
597.448,70.19508
597.65,191.78174
597.852,98.15046
598.055,225.54766
598.257,110.89274
598.459,70.58645
598.662,145.0618
598.864,140.21828
599.066,219.55613
599.268,181.18245
599.47,133.27245
599.673,155.11043
599.875,188.92051
600.077,157.16289
600.279,145.82767
600.481,44.4636
600.683,117.2704
600.885,164.44271
601.087,158.01456
601.289,258.28759
601.491,216.26487
601.693,174.2131
601.895,161.57808
602.097,160.07324
602.299,78.68454
602.501,143.06054
602.703,145.71035
602.905,153.01694
603.107,292.70717
603.309,157.80635
603.511,169.33178
603.713,174.10586
603.914,172.68678
604.116,150.9093
604.318,188.52903
604.52,149.37553
604.722,143.72678
604.923,262.99381
605.125,230.59286
605.327,191.15943
605.528,140.14429
605.73,227.61618
605.932,213.34407
606.133,243.55598
606.335,156.62076
606.537,111.72829
606.738,206.87996
606.94,223.93311
607.141,159.0758
607.343,97.10688
607.544,199.00596
607.746,113.94044
607.947,220.91359
608.149,165.99368
608.35,63.66544
608.552,125.14262
608.753,156.33514
608.954,57.3555
609.156,97.10688
609.357,149.00036
609.558,198.38743
609.76,110.609
609.961,158.90273
610.162,105.50015
610.364,68.37575
610.565,71.42852
610.766,87.11075
610.967,98.02039
611.169,118.57606
611.37,121.56108
611.571,108.15121
611.772,103.99791
611.973,73.78572
612.174,153.30528
612.375,84.67982
612.577,34.38691
612.778,43.65181
612.979,60.44492
613.18,74.19664
613.381,79.41201
613.582,28.95986
613.783,1.94213
613.984,-9.51363
614.185,-11.324
614.385,87.39281
614.586,50.54797
614.787,80.3781
614.988,25.77437
615.189,42.68911
615.39,73.33441
615.591,-14.53546
615.792,120.18904
615.992,20.22103
616.193,15.22158
616.394,11.55636
616.595,92.21883
616.795,12.93817
616.996,56.00492
617.197,87.71235
617.397,61.03898
617.598,49.11585
617.799,57.37793
617.999,-0.34298
618.2,69.29636
618.4,86.27738
618.601,79.39954
618.802,95.50378
619.002,49.25153
619.203,77.36362
619.403,45.95588
619.604,-18.21903
619.804,46.40299
620.005,131.68287
620.205,-4.002
620.405,113.69614
620.606,105.47535
620.806,40.81793
621.007,64.8682
621.207,20.66511
621.407,61.88172
621.608,-13.6122
621.808,44.47393
622.008,18.87098
622.208,2.406
622.409,65.97445
622.609,82.25558
622.809,84.35426
623.009,59.21315
623.21,50.04664
623.41,23.93102
623.61,111.06661
623.81,109.71968
624.01,-8.11892
624.21,37.23111
624.41,8.80728
624.61,85.76593
624.81,2.86539
625.01,55.57339
625.21,41.27175
625.41,6.52756
625.61,48.18563
625.81,89.0091
626.01,74.42916
626.21,39.55179
626.41,67.03976
626.61,77.62987
626.81,16.14826
627.01,132.89192
627.21,114.6193
627.409,45.90907
627.609,11.56087
627.809,127.13859
628.009,34.93585
628.208,31.26261
628.408,43.66553
628.608,14.77545
628.808,26.68201
629.007,121.12277
629.207,72.3361
629.407,58.23864
629.606,24.40414
629.806,43.58365
630.006,50.96602
630.205,62.02722
630.405,45.60243
630.604,-78.22557
630.804,34.87597
631.003,-26.01839
631.203,-13.63135
631.402,-33.7561
631.602,87.17211
631.801,-0.34362
632.001,-41.10063
632.2,-41.52328
632.399,53.27543
632.599,1.03125
632.798,21.20558
632.998,-15.45856
633.197,35.82083
633.396,48.24984
633.595,9.72595
633.795,51.45603
633.994,1.48864
634.193,15.71127
634.392,3.78345
634.592,38.62917
634.791,66.97149
634.99,63.24794
635.189,31.68827
635.388,-6.76026
635.588,77.47175
635.787,111.01425
635.986,14.78357
636.185,70.25569
636.384,-10.4185
636.583,67.11915
636.782,87.09036
636.981,55.10683
637.18,67.46584
637.379,86.85823
637.578,-3.08985
637.777,98.73193
637.976,41.2526
638.175,105.93262
638.374,64.2119
638.572,98.1351
638.771,79.34357
638.97,80.25199
639.169,49.99198
639.368,101.94516
639.567,125.30824
639.765,15.2192
639.964,96.69525
640.163,138.06402
640.362,169.33846
640.56,88.33809
640.759,86.16944
640.958,108.92962
641.156,112.67642
641.355,197.32085
641.554,131.3442
641.752,76.54554
641.951,128.58675
642.149,109.10767
642.348,211.29507
642.546,128.76673
642.745,103.02818
642.943,147.43381
643.142,201.42955
643.34,201.283
643.539,194.05306
643.737,153.07043
643.936,301.5599
644.134,240.46419
644.333,256.72507
644.531,210.23398
644.729,204.64552
644.928,179.33523
645.126,160.71315
645.324,264.65655
645.523,201.58435
645.721,197.88231
645.919,318.34524
646.117,160.66411
646.316,234.89386
646.514,225.51598
646.712,290.31535
646.91,256.25035
647.108,232.27122
647.306,195.58948
647.505,111.6677
647.703,188.18414
647.901,118.08299
648.099,237.51705
648.297,121.98295
648.495,128.07116
648.693,193.873
648.891,137.16876
649.089,225.65165
649.287,116.63283
649.485,174.66955
649.683,156.57207
649.881,136.42579
650.079,120.41121
650.276,134.57937
650.474,47.63205
650.672,179.08788
650.87,134.66305
651.068,144.10932
651.266,146.45284
651.463,95.04593
651.661,160.48475
651.859,114.66419
652.057,138.81545
652.254,84.0023
652.452,62.83005
652.65,-21.38015
652.847,180.62618
653.045,101.77716
653.243,116.44775
653.44,159.70892
653.638,106.42323
653.836,64.66923
654.033,55.07661
654.231,65.58388
654.428,65.54304
654.626,48.72323
654.823,-19.59452
655.021,27.55047
655.218,17.09244
655.416,-22.36152
655.613,-9.50691
655.811,32.14811
656.008,42.71915
656.205,49.51554
656.403,24.39648
656.6,82.74002
656.797,16.13565
656.995,15.65251
657.192,-9.97455
657.389,117.63027
657.587,72.45981
657.784,58.43134
657.981,30.83868
658.178,83.12607
658.375,42.26799
658.573,31.76283
658.77,53.19638
658.967,29.8565
659.164,70.31667
659.361,44.07866
659.558,38.13203
659.755,52.47568
659.953,20.26346
660.15,144.47583
660.347,-31.96674
660.544,18.89602
660.741,125.38743
660.938,45.90907
661.135,35.37437
661.332,-9.49652
661.528,32.23143
661.725,66.66074
661.922,24.40414
662.119,69.29636
662.316,61.99305
662.513,-1.71322
662.71,-20.94055
662.907,38.10821
663.103,-14.1063
663.3,-9.50319
663.497,-0.80198
663.694,6.52399
663.89,56.46703
664.087,8.8169
664.284,91.22524
664.481,4.70765
664.677,7.92409
664.874,35.40208
665.071,112.63268
665.267,-59.28948
665.464,-0.80173
665.66,24.86614
665.857,130.85054
666.054,39.51142
666.25,84.65418
666.447,31.31925
666.643,90.7681
666.84,66.11882
667.036,-18.69371
667.233,130.0071
667.429,67.90221
667.625,83.61043
667.822,42.64268
668.018,128.56687
668.215,49.10051
668.411,82.59659
668.607,3.77929
668.804,52.68197
669,113.35457
669.196,25.78652
669.392,19.31932
669.589,46.40299
669.785,50.982
669.981,107.77004
670.177,38.2011
670.374,84.28208
670.57,77.1779
670.766,13.39606
670.962,37.65369
671.158,27.13349
671.354,71.53958
671.55,64.13705
671.746,66.94015
671.943,-11.7734
672.139,72.91144
672.335,74.1909
672.531,3.77722
672.727,43.67584
672.923,39.53312
673.119,45.78823
673.315,39.09353
673.51,80.84887
673.706,58.362
673.902,39.84539
674.098,49.18917
674.294,-37.02002
674.49,59.18999
674.686,-6.29695
674.882,39.40416
675.077,26.18333
675.273,38.09338
675.469,16.62583
675.665,68.45644
675.86,164.43796
676.056,24.33772
676.252,11.55456
676.447,59.75066
676.643,36.74727
676.839,36.35239
677.034,37.63317
677.23,12.00741
677.426,-23.71763
677.621,5.60537
677.817,85.80626
678.012,22.57877
678.208,25.30842
678.403,33.11458
678.599,26.1996
678.794,9.75892
678.99,10.62879
679.185,19.81964
679.381,31.69073
679.576,38.60792
679.772,55.12415
679.967,85.51049
680.162,48.26124
680.358,118.49955
680.553,73.00289
680.748,25.77841
680.944,-30.5887
681.139,73.87216
681.334,28.52453
681.529,77.66054
681.725,37.24866
681.92,53.08841
682.115,81.41659
682.31,96.32857
682.506,26.70295
682.701,120.70332
682.896,58.69585
683.091,111.06661
683.286,3.322
683.481,51.45603
683.676,94.9712
683.871,102.36269
684.066,64.69956
684.261,62.51001
684.456,53.28798
684.651,314.60195
684.846,-10.38948
685.041,62.82515
685.236,93.55467
685.431,121.09424
685.626,149.83524
685.821,29.94329
686.016,20.24295
686.211,91.84074
686.406,-9.50691
686.6,6.0743
686.795,64.02348
686.99,102.38689
687.185,62.06152
687.38,54.92728
687.574,66.12401
687.769,116.54824
687.964,69.18297
688.158,63.30215
688.353,63.75953
688.548,69.72123
688.742,144.58328
688.937,85.69235
689.132,78.94186
689.326,72.34169
689.521,93.94593
689.716,85.6524
689.91,35.78742
690.105,90.78228
690.299,132.4212
690.494,101.90498
690.688,93.53272
690.883,110.13405
691.077,101.73744
691.271,126.58145
691.466,86.24354
691.66,-8.56711
691.855,128.78684
692.049,118.873
692.243,116.37505
692.438,99.34435
692.632,72.29705
692.826,35.33583
693.021,66.89333
693.215,92.41722
693.409,90.33212
693.604,135.18374
693.798,146.62377
693.992,84.41365
694.186,115.00457
694.38,59.6242
694.575,85.17581
694.769,61.439
694.963,159.11387
695.157,69.95097
695.351,57.3555
695.545,86.37928
695.739,83.884
695.933,38.14099
696.127,75.18014
696.321,59.72239
696.515,97.72376
696.709,55.6084
696.903,14.7859
697.097,70.35009
697.291,32.62328
697.485,44.06833
697.679,23.03704
697.873,65.62492
698.067,-14.07205
698.261,54.61475
698.454,65.23905
698.648,8.37143
698.842,16.15206
699.036,84.56007
699.23,51.96729
699.423,77.5627
699.617,25.80278
699.811,79.94532
700.005,86.45483
700.198,0.57185
700.392,13.86153
700.586,46.89042
700.779,-3.0969
700.973,30.3684
701.166,86.83761
701.36,62.05661
701.554,-31.04964
701.747,-31.92178
701.941,-16.37488
702.134,-74.19627
702.328,101.59986
702.521,-18.19623
702.715,32.25442
702.908,20.7735
703.102,81.84924
703.295,-30.13494
703.489,-52.49814
703.682,56.18686
703.875,-67.68167
704.069,-11.33017
704.262,-28.22807
704.455,52.8508
704.649,22.11875
704.842,36.35814
705.035,-9.04019
705.229,21.652
705.422,63.80445
705.615,-2.17737
705.808,119.33999
706.002,32.6437
706.195,47.69104
706.388,55.6612
706.581,13.4034
706.774,-70.45557
706.967,1.02972
707.161,36.36389
707.354,-77.6276
707.547,57.45469
707.74,-34.67477
707.933,-9.04372
708.126,35.88265
708.319,1.4884
708.512,39.09353
708.705,-66.36835
708.898,-18.22046
709.091,12.94629
709.284,39.21814
709.477,-5.37759
709.67,12.49498
709.862,10.19631
710.055,66.10843
710.248,-23.73818
710.441,-63.56937
710.634,14.33318
710.827,-31.01806
711.019,62.88903
711.212,55.53854
711.405,0.57315
711.598,28.56727
711.79,-1.2584
711.983,0.57283
712.176,13.40025
712.369,21.23241
712.561,21.6503
712.754,40.96212
712.946,38.17397
713.139,41.36199
713.332,36.36964
713.524,96.36637
713.717,3.32383
713.909,53.27124
714.102,-6.29744
714.294,10.66877
714.487,-59.43709
714.679,56.97844
714.872,65.16731
715.064,24.86029
715.257,23.03523
715.449,-21.88369
715.642,70.30001
715.834,-23.70276
716.026,30.85329
716.219,44.14447
716.411,41.77418
716.603,61.91545
716.796,32.20602
716.988,-25.08725
717.18,21.81925
717.373,2.40431
717.565,31.30688
717.757,27.62805
717.949,119.24622
718.142,-17.73971
718.334,62.41664
718.526,107.86318
718.718,-25.47818
718.91,-4.46672
719.102,-14.56285
719.294,104.03844
719.486,17.03895
719.679,70.24465
719.871,14.3219
720.063,19.34639
720.255,32.62837
720.447,-45.18304
720.639,95.73657
720.831,60.06278
721.023,-9.94807
721.215,21.14117
721.406,134.2378
721.598,80.70298
721.79,125.6276
721.982,103.11637
722.174,136.61731
722.366,134.89507
722.558,93.51082
722.75,165.42015
722.941,164.07141
723.133,65.58388
723.325,42.10457
723.517,68.40258
723.708,79.41201
723.9,216.90801
724.092,81.17927
724.284,137.93435
724.475,123.2361
724.667,86.55919
724.858,97.76985
725.05,77.00862
725.242,85.813
725.433,88.32445
725.625,1.94273
725.816,120.02936
726.008,178.02289
726.2,99.28293
726.391,45.42312
726.583,55.89169
726.774,105.2134
726.966,110.39285
727.157,128.45789
727.348,139.76151
727.54,191.05479
727.731,172.08124
727.923,108.60815
728.114,155.08301
728.305,126.03407
728.497,161.44932
728.688,183.5395
728.879,141.69369
729.071,238.87525
729.262,145.11803
729.453,168.04406
729.644,91.35044
729.836,99.0174
730.027,224.45908
730.218,183.1973
730.409,146.70516
730.6,168.28947
730.792,195.45109
730.983,59.63815
731.174,196.77313
731.365,260.38036
731.556,151.98541
731.747,157.63636
731.938,153.37801
732.129,161.29762
732.32,172.51053
732.511,110.68664
732.702,154.46036
732.893,171.63851
733.084,195.31484
733.275,260.05505
733.466,109.97036
733.657,176.95812
733.848,124.53851
734.039,146.15566
734.23,190.62558
734.42,211.19596
734.611,204.74395
734.802,173.08896
734.993,151.37677
735.184,147.72994
735.374,179.47437
735.565,178.25847
735.756,135.30386
735.947,142.09477
736.137,111.76302
736.328,83.83832
736.519,140.38079
736.709,174.4019
736.9,53.13456
737.091,170.12538
737.281,144.7292
737.472,82.3023
737.662,59.52714
737.853,130.00568
738.044,97.02414
738.234,148.94209
738.425,166.30742
738.615,90.95056
738.806,157.60723
738.996,106.28198
739.187,183.7657
739.377,237.35713
739.567,136.82911
739.758,186.04839
739.948,133.87509
740.139,201.74
740.329,161.17198
740.519,179.19978
740.71,147.48064
740.9,107.93351
741.09,138.2512
741.281,220.50121
741.471,243.74268
741.661,165.99804
741.851,224.68782
742.042,201.11355
742.232,114.71153
742.422,222.8306
742.612,174.52101
742.802,166.94303
742.992,197.59319
743.182,201.25143
743.373,261.31323
743.563,189.9791
743.753,120.91505
743.943,160.1475
744.133,135.12788
744.323,187.97741
744.513,213.32174
744.703,156.29418
744.893,137.72016
745.083,223.72447
745.273,118.70349
745.463,214.4565
745.653,161.52799
745.843,229.3865
746.033,173.04925
746.222,165.50404
746.412,156.46262
746.602,172.16561
746.792,231.37187
746.982,275.22296
747.172,305.26438
747.361,264.64462
747.551,244.14774
747.741,286.46083
747.931,294.91341
748.12,285.61767
748.31,256.05472
748.5,286.58293
748.689,264.44352
748.879,285.48236
749.069,282.76257
749.258,360.91117
749.448,313.96077
749.637,241.00429
749.827,215.16962
750.017,251.47311
750.206,278.63352
750.396,231.89703
750.585,298.79917
750.775,243.86964
750.964,230.55109
751.154,208.90788
751.343,255.79612
751.533,279.4065
751.722,198.42684
751.911,286.32458
752.101,298.77622
752.29,324.22076
752.479,372.98222
752.669,296.8674
752.858,276.70207
753.047,344.68924
753.237,319.62262
753.426,347.43845
753.615,352.53762
753.805,385.69254
753.994,327.24562
754.183,340.53945
754.372,361.83149
754.561,476.95086
754.751,494.19172
754.94,703.00137
755.129,1100.6244
755.318,1420.80907
755.507,1786.84867
755.696,2143.73681
755.885,2672.41469
756.074,3274.39099
756.263,4119.88202
756.452,5398.06879
756.641,6844.15977
756.83,8205.42534
757.019,9877.44308
757.208,11678.1712
757.397,13379.8963
757.586,15289.80768
757.775,17145.60571
757.964,18945.51618
758.153,20931.28695
758.342,22436.45948
758.531,24031.77764
758.72,25546.6353
758.908,27140.81467
759.097,28787.30194
759.286,30129.67568
759.475,30930.91794
759.664,31694.13523
759.852,33021.66263
760.041,32953.32219
760.23,33482.51212
760.419,33412.14001
760.607,33836.77577
760.796,33701.51925
760.985,33436.68332
761.173,33416.34645
761.362,33446.92225
761.55,33209.60563
761.739,33197.26195
761.928,33073.65625
762.116,32828.05696
762.305,32463.38039
762.493,32174.69821
762.682,32575.35417
762.87,32507.01401
763.059,32621.70455
763.247,32739.80703
763.436,32389.54048
763.624,32137.31628
763.813,31634.1299
764.001,30950.16315
764.189,29915.10082
764.378,29344.45221
764.566,28852.45978
764.755,28543.28734
764.943,27641.40668
765.131,26992.74318
765.319,25106.49473
765.508,22379.95883
765.696,20071.48935
765.884,18895.805
766.073,17768.80871
766.261,17072.00495
766.449,16321.90437
766.637,15744.42379
766.825,14902.09228
767.013,14324.27956
767.202,13696.15812
767.39,12923.96391
767.578,12150.65847
767.766,11285.17836
767.954,10694.1656
768.142,9943.66265
768.33,9355.87055
768.518,8760.60948
768.706,7907.20159
768.894,7523.16584
769.082,7133.23887
769.27,6883.66038
769.458,6707.2808
769.646,6787.1679
769.834,6635.60126
770.022,6716.03575
770.21,6612.15255
770.398,6695.31599
770.586,6658.40736
770.774,6585.14503
770.961,6463.66985
771.149,6627.83359
771.337,6519.40244
771.525,6414.48654
771.713,6344.59854
771.9,6362.07367
772.088,6303.47905
772.276,6418.91307
772.464,6288.3185
772.651,6400.43154
772.839,6322.3347
773.027,6418.21887
773.214,6275.89588
773.402,6147.5443
773.59,6053.69523
773.777,5848.78104
773.965,5743.90487
774.152,5483.03328
774.34,5220.45483
774.527,5040.20898
774.715,4503.42114
774.903,4150.21209
775.09,3790.79666
775.278,3582.35588
775.465,3373.55463
775.652,3198.25993
775.84,3060.84324
776.027,2942.92819
776.215,2558.00204
776.402,2432.70379
776.59,2212.30598
776.777,1992.04259
776.964,1803.46256
777.152,1505.33936
777.339,1274.28336
777.526,1093.93841
777.713,878.2858
777.901,799.20406
778.088,568.51107
778.275,489.01227
778.462,365.29116
778.65,338.59844
778.837,258.60709
779.024,239.73266
779.211,307.07965
779.398,384.16048
779.586,297.00421
779.773,346.90366
779.96,254.15995
780.147,213.14424
780.334,248.42585
780.521,174.82907
780.708,349.57368
780.895,332.83447
781.082,259.03728
781.269,338.3762
781.456,271.21193
781.643,419.67229
781.83,579.48986
782.017,582.23629
782.204,764.51118
782.391,991.31382
782.578,1119.27527
782.764,1311.47551
782.951,1419.50335
783.138,1580.43341
783.325,1809.54496
783.512,2062.79893
783.699,2287.19309
783.885,2405.49149
784.072,2551.83102
784.259,2660.03165
784.446,2941.45814
784.632,3103.19875
784.819,3279.19026
785.006,3397.87103
785.192,3536.5717
785.379,3567.39273
785.566,3560.47598
785.752,3774.87206
785.939,3764.32765
786.126,3801.51085
786.312,3676.52788
786.499,3801.5327
786.685,3894.08639
786.872,3720.33436
787.058,3581.24021
787.245,3863.28689
787.431,3711.93993
787.618,3708.79743
787.804,3700.25159
787.991,3643.96071
788.177,3660.58583
788.364,3724.41476
788.55,3675.16525
788.736,3734.78096
788.923,3727.92488
789.109,3676.76281
789.296,3678.52327
789.482,3705.02395
789.668,3649.3114
789.854,3726.73168
790.041,3656.4489
790.227,3588.07368
790.413,3662.28213
790.6,3437.30463
790.786,3113.10974
790.972,2743.37357
791.158,2578.35711
791.344,2400.45603
791.53,2336.69174
791.717,2264.55833
791.903,2136.53089
792.089,1978.47633
792.275,1925.05854
792.461,1821.38021
792.647,1685.64981
792.833,1605.07004
793.019,1487.72727
793.205,1326.4258
793.391,1212.06544
793.577,1030.40336
793.763,954.95118
793.949,884.17918
794.135,755.01352
794.321,666.0859
794.507,661.21434
794.693,503.22427
794.879,474.53492
795.065,553.35312
795.251,540.52235
795.436,486.19439
795.622,460.4701
795.808,565.00556
795.994,415.39549
796.18,432.3976
796.365,411.80206
796.551,425.00908
796.737,455.77226
796.923,368.06954
797.108,454.97116
797.294,418.21425
797.48,417.7517
797.665,482.46801
797.851,398.5985
798.037,443.18966
798.222,339.93182
798.408,281.58371
798.593,330.27387
798.779,312.5043
798.965,385.54645
799.15,339.57343
799.336,414.19536
799.521,314.48276
799.707,365.06883
799.892,320.39307
800.078,348.77309
800.263,260.89247
800.448,231.738
800.634,289.71975
800.819,211.44134
801.005,277.83162
801.19,313.6957
801.375,288.01397
801.561,360.29313
801.746,330.94596
801.931,292.10178
802.117,359.07008
802.302,493.17206
802.487,575.13917
802.673,685.93436
802.858,712.7967
803.043,915.44139
803.228,1033.43572
803.413,1046.77244
803.599,1325.80141
803.784,1421.60981
803.969,1564.57813
804.154,1700.44221
804.339,1778.64232
804.524,1949.52797
804.709,2089.6868
804.894,2200.27604
805.08,2425.79524
805.265,2461.59702
805.45,2700.98268
805.635,2867.2852
805.82,2874.96941
806.005,2829.39727
806.19,2988.15986
806.375,3152.00199
806.559,3273.12398
806.744,3522.47406
806.929,3782.96034
807.114,4094.18697
807.299,4618.33988
807.484,5480.87148
807.669,6947.15348
807.854,8139.94697
808.038,9579.10108
808.223,11093.53944
808.408,12929.09085
808.593,14306.75552
808.778,16186.67596
808.962,18023.24059
809.147,19785.40452
809.332,21505.76914
809.516,23021.30495
809.701,25038.71161
809.886,26604.30207
810.07,27799.18482
810.255,30282.59485
810.44,31229.87198
810.624,33026.86286
810.809,34135.46095
810.994,35273.53004
811.178,35493.14576
811.363,36331.23218
811.547,36223.51138
811.732,36545.89961
811.916,36146.90336
812.101,36480.0072
812.285,36350.79761
812.47,36652.93116
812.654,36128.58556
812.839,36177.23136
813.023,36059.4954
813.207,36003.58181
813.392,35909.54819
813.576,35905.04272
813.76,35495.37073
813.945,35589.78047
814.129,34919.93531
814.313,35043.32635
814.498,34952.19221
814.682,34711.19302
814.866,34386.15569
815.051,34347.89421
815.235,33757.03016
815.419,34151.79882
815.603,33569.59873
815.787,32928.99695
815.972,31740.7815
816.156,30897.21107
816.34,29577.20532
816.524,27887.03293
816.708,25086.32423
816.892,23111.82118
817.076,21872.32356
817.26,20782.49874
817.445,19672.80656
817.629,19099.58061
817.813,18450.5312
817.997,17985.73268
818.181,17230.36185
818.365,16485.63952
818.549,15344.3141
818.733,14499.96249
818.916,13414.12902
819.1,12492.57081
819.284,11470.15703
819.468,10722.67111
819.652,9774.82389
819.836,9162.70317
820.02,8520.12761
820.204,8163.6051
820.387,7819.55399
820.571,7714.85202
820.755,7509.84781
820.939,7538.29113
821.123,7471.03253
821.306,7514.92041
821.49,7409.07496
821.674,7431.51729
821.858,7345.37869
822.041,7338.10217
822.225,7429.94798
822.409,7327.38745
822.592,7417.67865
822.776,7576.89841
822.959,7673.02928
823.143,7918.24899
823.327,8169.71979
823.51,8412.12967
823.694,8426.83318
823.877,8647.65864
824.061,8548.33526
824.244,8396.39298
824.428,8015.35782
824.611,7993.20963
824.795,7948.61265
824.978,7927.14496
825.162,8064.55316
825.345,8289.84961
825.529,8351.0405
825.712,8624.03788
825.895,8831.69104
826.079,9075.99914
826.262,9454.03134
826.445,9737.97238
826.629,10034.0811
826.812,10410.36695
826.995,10802.28462
827.179,11076.95181
827.362,11302.42435
827.545,11872.63262
827.728,12100.25893
827.911,12748.061
828.095,13231.09051
828.278,13808.66794
828.461,14069.9211
828.644,14743.15738
828.827,15075.43829
829.01,15622.89473
829.194,16134.0648
829.377,16485.25559
829.56,16730.55481
829.743,17128.72268
829.926,17195.06683
830.109,17593.16841
830.292,17443.01594
830.475,17612.89427
830.658,17570.13366
830.841,17836.58928
831.024,17927.32187
831.207,17496.85438
831.39,17354.80751
831.573,17150.82306
831.756,16265.35679
831.939,15862.91636
832.121,15366.71625
832.304,15366.56297
832.487,14887.26918
832.67,14756.913
832.853,14236.03849
833.036,14233.1984
833.218,13780.2293
833.401,13533.32337
833.584,13126.6594
833.767,12582.84217
833.949,12141.29418
834.132,11916.12691
834.315,11320.12855
834.498,11346.37244
834.68,10887.11639
834.863,10527.52321
835.045,9533.4948
835.228,8519.79068
835.411,7696.22716
835.593,6898.96275
835.776,6147.6143
835.958,5644.51683
836.141,5209.05502
836.324,4832.91768
836.506,4440.45965
836.689,4017.64131
836.871,3563.07138
837.054,3129.05025
837.236,2776.05706
837.419,2245.23788
837.601,1749.76625
837.783,1760.46185
837.966,1014.19775
838.148,778.73075
838.331,606.96643
838.513,465.71355
838.695,434.91431
838.878,313.02624
839.06,264.97771
839.242,275.23382
839.425,198.89836
839.607,204.19053
839.789,212.41327
839.971,216.85664
840.154,261.95916
840.336,164.23857
840.518,317.42472
840.7,197.27413
840.882,183.06661
841.065,190.64307
841.247,192.04265
841.429,182.61628
841.611,105.88223
841.793,173.11431
841.975,121.73343
842.157,116.47179
842.339,123.70099
842.521,152.4772
842.703,211.66873
842.885,124.04354
843.067,203.84511
843.249,69.57522
843.431,145.26047
843.613,145.50666
843.795,105.31109
843.977,251.05838
844.159,160.89802
844.341,131.65814
844.523,109.80839
844.705,149.86734
844.887,132.14438
845.068,158.05539
845.25,206.36007
845.432,141.28662
845.614,121.81843
845.796,152.7089
845.977,121.23029
846.159,106.38987
846.341,55.83139
846.523,141.09878
846.704,177.09717
846.886,110.17969
847.068,119.72227
847.249,164.3657
847.431,320.34706
847.613,291.46012
847.794,451.65697
847.976,492.95415
848.157,556.24986
848.339,593.9703
848.521,736.29749
848.702,871.61073
848.884,879.58949
849.065,900.59464
849.247,1044.90915
849.428,1119.72717
849.61,1225.19052
849.791,1335.72807
849.973,1433.37627
850.154,1478.90635
850.335,1546.202
850.517,1706.38322
850.698,1662.53795
850.88,1826.78605
851.061,1819.38179
851.242,1853.83288
851.424,1897.98023
851.605,1966.4464
851.786,2005.08181
851.968,2056.33958
852.149,2041.94433
852.33,1930.44706
852.511,2009.88247
852.693,2000.83773
852.874,1992.36688
853.055,1992.90884
853.236,2004.04537
853.417,1974.98887
853.599,1961.96093
853.78,2020.27626
853.961,2065.43312
854.142,1963.82013
854.323,1928.20706
854.504,1986.38267
854.685,1925.20728
854.866,1938.13102
855.047,1934.41408
855.228,2077.9348
855.409,1960.9365
855.59,1870.2027
855.771,1905.70578
855.952,1883.74363
856.133,1634.93449
856.314,1467.49458
856.495,1210.64691
856.676,1206.71965
856.857,973.70343
857.038,976.2105
857.219,830.33535
857.4,741.2037
857.58,722.92029
857.761,724.01012
857.942,547.16447
858.123,455.2166
858.304,354.79646
858.484,322.13977
858.665,299.05254
858.846,177.11092
859.027,111.62457
859.207,140.22923
859.388,176.32219
859.569,136.02225
859.749,115.71181
859.93,101.84093
860.111,38.57168
860.291,103.96557
860.472,71.56194
860.653,66.86742
860.833,86.10915
861.014,80.15211
861.194,103.25372
861.375,85.84672
861.555,129.08293
861.736,61.42944
861.916,61.92028
862.097,36.72436
862.277,78.81245
862.458,60.53879
862.638,52.35557
862.819,126.62121
862.999,99.85508
863.179,108.06711
863.36,133.93818
863.54,88.14169
863.721,36.73867
863.901,167.35133
864.081,67.91284
864.262,97.24338
864.442,174.45063
864.622,114.30571
864.802,123.37102
864.983,-5.83212
865.163,-44.62855
865.343,120.87706
865.523,175.3141
865.703,126.06497
865.884,106.57359
866.064,105.85815
866.244,59.56398
866.424,87.86807
866.604,68.77421
866.784,69.77039
866.964,132.67183
867.145,143.81614
867.325,25.22424
867.505,94.80826
867.685,63.60653
867.865,126.20354
868.045,80.7156
868.225,79.15293
868.405,52.62519
868.585,86.19634
868.765,148.07485
868.945,8.34464
869.125,45.86972
869.304,31.73784
869.484,49.53863
869.664,70.73028
869.844,103.94943
870.024,86.61302
870.204,21.13791
870.384,118.88237
870.563,113.57215
870.743,136.19429
870.923,46.72257
871.103,101.75332
871.283,61.46294
871.462,142.82533
871.642,59.20851
871.822,146.04196
872.001,105.30292
872.181,143.43787
872.361,139.82708
872.54,121.43746
872.72,126.90962
872.9,82.56424
873.079,118.00432
873.259,94.9712
873.438,121.72401
873.618,156.14006
873.798,130.11691
873.977,236.35166
874.157,465.33895
874.336,693.84536
874.516,911.82876
874.695,1166.9157
874.875,1495.09021
875.054,1841.25123
875.234,2144.897
875.413,2513.20132
875.592,2863.50239
875.772,3166.76367
875.951,3448.95775
876.131,3667.80205
876.31,3931.73367
876.489,4421.8261
876.669,4824.41775
876.848,5057.79619
877.027,5386.79775
877.206,5785.02485
877.386,6222.45332
877.565,6555.38227
877.744,6904.30795
877.923,7278.63817
878.103,7384.04023
878.282,7502.42666
878.461,7595.74778
878.64,7812.00694
878.819,7600.92972
878.999,7827.19448
879.178,7813.99833
879.357,8010.42628
879.536,7787.31
879.715,7802.3155
879.894,7722.53503
880.073,7775.97707
880.252,7625.25549
880.431,7620.1133
880.61,7531.52058
880.789,7410.36849
880.968,7401.17238
881.147,7206.35813
881.326,7059.4608
881.505,7002.43484
881.684,6772.56302
881.863,6604.95854
882.042,6485.27373
882.221,6372.71672
882.4,6311.83565
882.578,6020.62371
882.757,5981.52301
882.936,5599.92239
883.115,4953.24328
883.294,4228.08304
883.473,3480.30975
883.651,2938.07483
883.83,2379.48475
884.009,1845.42849
884.188,1582.23201
884.366,1022.99979
884.545,863.46691
884.724,602.10567
884.902,451.2496
885.081,365.15883
885.26,252.79738
885.438,201.79185
885.617,266.37121
885.796,173.32859
885.974,245.58961
886.153,191.06971
886.331,166.56959
886.51,166.26852
886.688,117.17938
886.867,137.16033
887.045,119.88045
887.224,113.64288
887.402,134.17512
887.581,123.49169
887.759,132.44187
887.938,71.50057
888.116,148.12872
888.295,209.02957
888.473,102.22631
888.651,159.33432
888.83,85.18242
889.008,155.89864
889.186,178.05051
889.365,317.83081
889.543,529.38105
889.721,722.64298
889.9,788.60751
890.078,1017.1854
890.256,1274.23447
890.434,1550.97958
890.613,1726.06501
890.791,2065.00814
890.969,2178.12687
891.147,2353.85792
891.325,2631.95076
891.504,2912.01633
891.682,3039.57268
891.86,3317.2678
892.038,3432.72014
892.216,3814.87773
892.394,3957.78814
892.572,4321.98817
892.75,4325.66446
892.928,4715.59349
893.106,4887.8083
893.284,5007.66132
893.462,5201.18119
893.64,5351.96858
893.818,5335.35971
893.996,5463.26307
894.174,5385.97039
894.352,5437.28956
894.53,5362.2798
894.708,5600.15045
894.886,5569.35859
895.064,5567.16757
895.242,5410.60851
895.42,5421.64767
895.597,5393.90118
895.775,5367.61672
895.953,5164.03662
896.131,5028.83367
896.309,5048.85225
896.486,4878.43045
896.664,4779.04613
896.842,4680.73188
897.02,4438.03998
897.197,4368.83133
897.375,4326.06635
897.553,4263.71364
897.73,4201.41042
897.908,4117.74108
898.086,3991.16146
898.263,3571.00949
898.441,2976.94417
898.619,2457.03395
898.796,1945.93126
898.974,1606.28365
899.151,1222.68137
899.329,836.37353
899.506,676.46533
899.684,430.65627
899.861,348.56369
900.039,289.63459
900.216,309.20166
900.394,160.51665
900.571,143.57136
900.749,188.30149
900.926,166.88137
901.104,117.21573
901.281,177.23482
901.458,156.91521
901.636,87.92929
901.813,51.29994
901.99,111.9554
902.168,134.27971
902.345,23.88086
902.522,122.84644
902.7,118.60368
902.877,84.37403
903.054,42.26468
903.231,96.9867
903.409,171.08669
903.586,-12.70878
903.763,39.51142
903.94,1.94499
904.117,29.42439
904.295,77.56879
904.472,85.83322
904.649,64.66923
904.826,77.6054
905.003,13.38978
905.18,68.7635
905.357,45.50857
905.534,97.20532
905.711,40.89438
905.888,54.15719
906.065,99.3869
906.242,6.52348
906.419,21.67245
906.596,102.94234
906.773,11.58633
906.95,49.15434
907.127,-59.47441
907.304,43.13648
907.481,90.46698
907.658,113.32783
907.835,-44.76001
908.012,38.183
908.189,29.44283
908.365,58.15293
908.542,51.02615
908.719,55.64796
908.896,59.24569
909.073,13.41184
909.249,52.77208
909.426,49.69457
909.603,78.67061
909.78,68.99099
909.956,37.28395
910.133,77.97758
910.31,44.23213
910.486,8.8066
910.663,69.44962
910.84,33.52542
911.016,-2.63372
911.193,-42.917
911.37,27.10392
911.546,-14.50284
911.723,-35.56316
911.899,-4.92295
912.076,18.42943
912.252,-10.43406
912.429,77.59318
912.605,45.47639
912.782,-38.32426
912.958,84.05526
913.135,93.18507
913.311,-40.10615
913.488,38.61095
913.664,-4.9303
913.841,78.52121
914.017,-45.64449
914.193,96.11377
914.37,63.39157
914.546,41.38151
914.722,-1.71883
914.899,-59.4604
915.075,-12.70779
915.251,26.22826
915.428,42.29789
915.604,61.10133
915.78,52.81756
915.956,59.32053
916.133,83.14575
916.309,30.78075
916.485,62.06643
916.661,3.3207
916.837,-43.89854
917.014,18.91383
917.19,-3.09034
917.366,58.86204
917.542,-30.59111
917.718,-0.80223
917.894,-101.03741
918.07,17.06154
918.246,-14.06005
918.422,21.20225
918.599,35.36608
918.775,43.73461
918.951,42.70578
919.127,27.60202
919.303,-24.58851
919.479,21.45479
919.655,-90.38885
919.83,28.53798
920.006,26.7219
920.182,-6.75549
920.358,-0.34333
920.534,15.22871
920.71,36.78472
920.886,-55.73403
921.062,11.5781
921.238,-3.55152
921.413,36.85751
921.589,-52.54724
921.765,-33.32937
921.941,-7.67101
922.117,-12.27288
922.292,-28.26314
922.468,23.98765
922.644,71.98003
922.819,30.3541
922.995,34.07907
923.171,61.53518
923.347,41.80685
923.522,19.83681
923.698,58.3482
923.873,29.87745
924.049,-61.76387
924.225,9.29017
924.4,46.84989
924.576,-42.55568
924.751,-53.85935
924.927,-11.80375
925.103,-71.70874
925.278,-33.34768
925.454,-29.22472
925.629,41.843
925.805,24.87005
925.98,38.10227
926.155,56.11092
926.331,38.21624
926.506,36.7992
926.682,-70.48879
926.857,52.88838
927.033,15.25991
927.208,-25.97362
927.383,-55.25431
927.559,-15.02402
927.734,108.35498
927.909,-12.70481
928.085,0.1147
928.26,-4.47234
928.435,7.90222
928.61,27.64332
928.786,-39.34797
928.961,40.54211
929.136,6.53939
929.311,22.1014
929.487,8.83147
929.662,44.66641
929.837,-26.47083
930.012,-29.68105
930.187,67.10322
930.362,-5.3894
930.538,-48.91137
930.713,6.07861
930.888,-24.144
931.063,53.39345
931.238,34.01204
931.413,-0.3429
931.588,33.17744
931.763,6.07001
931.938,80.42893
932.113,66.2549
932.288,4.69431
932.463,19.32381
932.638,-125.74761
932.813,38.67498
932.988,-46.56402
933.163,15.23229
933.338,13.86698
933.512,-38.38422
933.687,-41.17173
933.862,-3.09251
934.037,74.01198
934.212,-5.39324
934.387,-16.83965
934.562,20.33074
934.736,104.68414
934.911,-10.8774
935.086,38.12905
935.261,-61.13333
935.435,-66.35791
935.61,13.41395
935.785,37.25453
935.96,10.64698
936.134,65.17242
936.309,82.07474
936.484,24.38503
936.658,-36.58724
936.833,2.40638
937.007,-84.46432
937.182,49.13892
937.357,35.43554
937.531,72.99141
937.706,-52.9849
937.88,7.4471
938.055,-20.46359
938.229,-8.14054
938.404,33.55423
938.578,63.25286
938.753,-17.77314
938.927,18.89158
939.102,-21.89402
939.276,72.60799
939.451,23.94791
939.625,102.01776
939.8,22.53291
939.974,86.76229
940.148,5.15306
940.323,68.3704
940.497,-28.23462
940.671,-48.51768
940.846,66.20757
941.02,98.3518
941.194,61.92028
941.369,58.68672
941.543,48.35694
941.717,83.4139
941.891,-32.87097
942.066,74.39981
942.24,-38.35116
942.414,-14.53886
942.588,81.30695
942.762,-78.04927
942.936,-19.9177
943.111,-8.5844
943.285,-4.01013
943.459,-7.22034
943.633,-10.43488
943.807,-16.82516
943.981,19.85565
944.155,-24.18564
944.329,-26.91884
944.503,-22.33166
944.677,-114.93028
944.851,17.56229
945.025,20.27138
945.199,11.55636
945.373,72.53934
945.547,10.657
945.721,9.73813
945.895,-12.25743
946.069,-62.22272
946.243,9.72671
946.417,-25.09316
946.591,-14.54227
946.765,-22.36506
946.939,-13.14435
947.112,-26.91251
947.286,-13.15353
947.46,-12.26128
947.634,38.16195
947.808,17.55532
947.981,17.06956
948.155,-48.44521
948.329,12.04415
948.503,64.24202
948.676,17.52904
948.85,53.39345
949.024,9.28504
949.197,26.27375
949.371,21.20058
949.545,5.61635
949.718,-62.17396
949.892,12.48028
950.066,0.57364
950.239,-33.81964
950.413,34.44831
950.586,73.07779
950.76,-9.49948
950.934,33.65512
951.107,2.86494
951.281,-1.71668
951.454,-33.29554
951.628,56.53814
951.801,37.75449
951.975,-13.61962
952.148,-4.01013
952.322,-1.71722
952.495,22.1066
952.668,-0.34488
952.842,72.93422
953.015,-119.49501
953.189,-80.99722
953.362,92.92586
953.535,-70.83677
953.709,30.33511
953.882,5.61414
954.055,1.03214
954.229,23.04612
954.402,-92.89452
954.575,109.71103
954.748,16.61797
954.922,49.24762
955.095,37.22819
955.268,-19.12701
955.441,49.17754
955.614,73.59445
955.788,-39.32622
955.961,-33.39511
956.134,-51.69947
956.307,-56.17474
956.48,-25.99797
956.653,33.09123
956.826,-121.73391
956.999,57.82201
957.173,-57.61195
957.346,45.93063
957.519,16.15967
957.692,-1.25869
957.865,25.28866
958.038,50.05448
958.211,-67.75614
958.384,50.04272
958.557,45.91266
958.73,17.106
958.903,76.81714
959.076,-58.85024
959.248,-1.71883
959.421,39.16796
959.594,39.09045
959.767,50.17316
959.94,-32.40497
960.113,34.96607
960.286,-11.79912
960.458,98.95182
960.631,-0.34354
960.804,-18.22476
960.977,-71.12974
961.15,49.19306
961.322,28.10191
961.495,24.0144
961.668,-19.59298
961.841,46.75507
962.013,-35.18234
962.186,29.06751
962.359,-13.15967
962.531,43.26206
962.704,-1.71628
962.877,3.31631
963.049,-15.9242
963.222,44.13056
963.394,90.84626
963.567,-40.18097
963.74,6.52348
963.912,91.98641
964.085,51.5129
964.257,44.51889
964.43,-23.73069
964.602,-6.76291
964.775,34.93038
964.947,7.45002
965.12,18.01557
965.292,66.23909
965.465,60.2566
965.637,35.95096
965.809,-14.07973
965.982,-27.89283
966.154,-60.75111
966.327,-59.39068
966.499,-16.37616
966.671,-74.13786
966.844,17.11008
967.016,54.71793
967.188,-35.13006
967.361,-10.89623
967.533,78.24304
967.705,-3.09641
967.877,-44.26725
968.05,-35.62423
968.222,23.90492
968.394,-2.17618
968.566,-1.26056
968.739,-1.26387
968.911,63.40156
969.083,92.27683
969.255,-25.10896
969.427,146.1007
969.599,31.297
969.771,29.8658
969.944,82.27512
970.116,79.90118
970.288,-19.56694
970.46,24.37932
970.632,-45.67653
970.804,-0.80338
970.976,22.1327
971.148,-12.71475
971.32,0.11468
971.492,4.24102
971.664,-9.05222
971.836,89.50879
972.008,-13.65609
972.18,-12.70184
972.352,18.90639
972.523,21.21394
972.695,45.97035
972.867,-24.61919
973.039,23.48976
973.211,115.86216
973.383,86.43422
973.555,29.02136
973.726,3.32435
973.898,22.53116
974.07,9.25755
974.242,31.27486
974.414,34.90038
974.585,21.60814
974.757,51.32373
974.929,82.12612
975.101,149.29407
975.272,108.94649
975.444,189.28828
975.616,116.44775
975.787,128.44801
975.959,184.83316
976.131,153.01694
976.302,181.14444
976.474,227.65169
976.645,282.67497
976.817,177.2387
976.988,210.08707
977.16,194.10165
977.332,296.0952
977.503,176.62149
977.675,222.80546
977.846,264.83706
978.018,318.69016
978.189,293.30036
978.361,181.92599
978.532,278.05322
978.703,282.13495
978.875,367.25421
979.046,247.00538
979.218,309.94424
979.389,294.86953
979.56,208.14187
979.732,279.83934
979.903,274.41914
980.075,293.03911
980.246,256.34917
980.417,246.51319
980.588,307.1196
980.76,286.61521
980.931,196.63618
981.102,259.51867
981.273,209.95687
981.445,158.91509
981.616,248.72009
981.787,233.68936
981.958,142.02313
982.13,190.97817
982.301,127.87464
982.472,105.67769
982.643,63.75456
982.814,114.47647
982.985,93.45984
983.156,61.0917
983.327,13.38978
983.499,-18.20333
983.67,35.88265
983.841,81.7844
984.012,38.60186
984.183,8.3655
984.354,48.30318
984.525,-3.09178
984.696,20.75543
984.867,46.48364
985.038,-6.29793
985.209,-45.20767
985.38,76.21961
985.55,12.02051
985.721,31.25528
985.892,-74.53834
986.063,24.42721
986.234,-68.10833
986.405,-30.59111
986.576,119.96836
986.747,3.32883
986.917,50.11357
987.088,85.39566
987.259,-7.22546
987.43,16.59845
987.601,15.2192
987.771,88.53075
987.942,84.32797
988.113,23.07349
988.283,-13.62494
988.454,67.51355
988.625,82.1842
988.796,24.87201
988.966,117.17215
989.137,-12.70184
989.308,9.2734
989.478,21.22232
989.649,14.77082
989.819,55.66561
989.99,12.03655
990.161,29.49397
990.331,8.37011
990.502,-15.92921
990.672,1.49098
990.843,-1.25889
991.013,7.4297
991.184,95.03095
991.354,-17.30888
991.525,47.83705
991.695,40.06072
991.866,25.33028
992.036,43.71726
992.206,409.48519
992.377,62.95835
992.547,35.80131
992.718,6.99769
992.888,0.57328
993.058,48.27646
993.229,26.26336
993.399,33.11979
993.569,-42.98769
993.74,-23.19762
993.91,-24.17233
994.08,-43.47745
994.251,-7.68671
994.421,14.75356
994.591,45.99939
994.761,72.98568
994.931,12.96159
995.102,43.2381
995.272,-107.99149
995.442,-31.53051
995.612,-36.54405
995.782,99.26046
995.953,-44.78453
996.123,78.03261
996.293,-32.31462
996.463,-84.54957
996.633,2.86788
996.803,0.57297
996.973,46.43586
997.143,6.52705
997.313,10.16153
997.483,15.24786
997.653,35.37713
997.823,-47.54314
997.993,41.36199
998.163,27.18043
998.333,30.82655
998.503,41.41419
998.673,-19.15715
998.843,-20.0108
999.013,60.93921
999.183,54.70496
999.353,75.44705
999.523,55.12849
999.692,-1.71937
999.862,-43.41925
1000.032,54.28961
1000.202,55.95246
1000.372,46.3957
1000.542,-34.69372
1000.711,-0.80179
1000.881,16.15967
1001.051,37.18748
1001.221,-47.11044
1001.39,-36.09404
1001.56,-27.86854
1001.73,-37.02294
1001.9,83.65676
1002.069,2.40581
1002.239,46.02126
1002.409,-16.83437
1002.578,73.08937
1002.748,63.52739
1002.917,61.57395
1003.087,121.10374
1003.257,17.10056
1003.426,-13.17718
1003.596,-70.90325
1003.765,-61.26658
1003.935,62.91373
1004.104,-37.84871
1004.274,-33.87324
1004.444,28.02927
1004.613,28.05773
1004.782,46.03587
1004.952,-65.87308
1005.121,-42.03033
1005.291,6.52654
1005.46,-36.60461
1005.63,-13.18548
1005.799,52.43405
1005.969,-19.59298
1006.138,-22.83666
1006.307,-72.21735
1006.477,-11.81399
1006.646,-23.73631
1006.815,28.04457
1006.985,-31.98435
1007.154,-36.56704
1007.323,-3.5532
1007.493,-53.00973
1007.662,7.45413
1007.831,1.03044
1008,7.91154
1008.17,91.05465
1008.339,12.03939
1008.508,-54.8777
1008.677,52.74329
1008.846,28.10191
1009.015,46.90152
1009.185,-65.35293
1009.354,39.12442
1009.523,41.83641
1009.692,-25.49197
1009.861,-28.30965
1010.03,33.54111
1010.199,-4.01424
1010.368,23.05522
1010.537,-66.35791
1010.707,-35.21565
1010.876,67.11383
1011.045,3.78226
1011.214,-1.26106
1011.383,-33.81964
1011.552,11.56901
1011.72,17.08434
1011.889,-1.26007
1012.058,-17.74386
1012.227,50.4649
1012.396,10.20032
1012.565,43.26892
1012.734,10.20837
1012.903,-56.7572
1013.072,-40.64872
1013.241,64.79628
1013.409,-1.26246
1013.578,33.60706
1013.747,43.68962
1013.916,-22.75443
1014.085,18.0056
1014.254,11.1258
1014.422,14.78473
1014.591,6.99216
1014.76,-133.50437
1014.929,119.65316
1015.097,-16.83569
1015.266,33.54373
1015.435,-57.59842
1015.603,-11.33814
1015.772,-69.12809
1015.941,-27.37296
1016.109,43.63811
1016.278,6.99382
1016.447,67.0187
1016.615,-39.79143
1016.784,51.43987
1016.952,-47.49482
1017.121,-34.69915
1017.289,-19.13752
1017.458,0.1145
1017.627,-0.34433
1017.795,19.3722
1017.964,16.14321
1018.132,-39.27991
1018.301,12.96467
1018.469,30.82171
1018.637,71.23886
1018.806,23.50827
1018.974,-38.40536
1019.143,24.86614
1019.311,-20.98328
1019.48,-23.73069
1019.648,-73.6097
1019.816,26.6446
1019.985,2.86834
1020.153,61.59827
1020.321,25.37844
1020.49,41.82654
1020.658,-21.90611
1020.826,13.8648
1020.995,9.28285
1021.163,-31.89947
1021.331,18.89454
1021.499,-87.3882
1021.668,41.8463
1021.836,1.48887
1022.004,-35.19896
1022.172,71.1045
1022.34,-47.02934
1022.509,0.11476
1022.677,-52.46558
1022.845,9.72975
1023.013,48.25744
1023.181,48.16686
1023.349,-34.72639
1023.517,-17.30072
1023.685,-67.70289
1023.853,69.90268
1024.021,-56.77513
1024.19,39.61133
1024.358,29.52213
1024.526,3.77929
1024.694,84.33171
1024.862,-2.17482
1025.03,52.42575
1025.198,33.10679
1025.366,16.15333
1025.533,20.77515
1025.701,-16.38387
1025.869,-40.22824
1026.037,-47.52824
1026.205,-36.99387
1026.373,-46.17819
1026.541,-33.80633
1026.709,-40.64237
1026.877,0.1146
1027.044,33.57265
1027.212,26.74731
1027.38,-9.51663
1027.548,84.85784
1027.716,-67.81507
1027.883,-4.4608
1028.051,-8.13477
1028.219,31.31925
1028.387,59.85511
1028.554,18.45691
1028.722,-140.81071
1028.89,-18.19056
1029.058,18.91234
1029.225,69.89714
1029.393,-48.49089
1029.561,26.17522
1029.728,-2.63766
1029.896,8.83147
1030.063,36.83995
1030.231,28.14659
1030.399,31.68088
1030.566,-44.81267
1030.734,-23.72695
1030.901,12.02615
1031.069,-11.35152
1031.236,-27.43129
1031.404,-5.84536
1031.571,24.86614
1031.739,-81.49454
1031.906,8.82035
1032.074,-5.85228
1032.241,-28.28079
1032.409,23.97056
1032.576,-0.80073
1032.744,-59.46974
1032.911,0.11447
1033.078,-1.72388
1033.246,-7.69833
1033.413,31.32173
1033.58,49.64742
1033.748,-4.91988
1033.915,-52.09298
1034.082,-9.96749
1034.25,-68.6258
1034.417,0.57198
1034.584,39.09661
1034.752,23.95168
1034.919,-114.46204
1035.086,28.05334
1035.253,5.61679
1035.421,51.43583
1035.588,-97.03256
1035.755,29.84954
1035.922,40.49386
1036.089,-29.69507
1036.257,15.26475
1036.424,1.95127
1036.591,39.65242
1036.758,28.11303
1036.925,23.01716
1037.092,29.41979
1037.259,27.13349
1037.426,50.99402
1037.593,-7.67461
1037.76,-42.93376
1037.927,28.60361
1038.094,12.02427
1038.262,-41.9779
1038.429,0.11466
1038.596,64.74016
1038.762,-12.27385
1038.929,102.01235
1039.096,13.87463
1039.263,-11.33282
1039.43,45.04685
1039.597,-14.09297
1039.764,-31.51066
1039.931,-44.88713
1040.098,39.50523
1040.265,45.54811
1040.432,-28.30965
1040.598,-69.40791
1040.765,-30.15868
1040.932,-72.63046
1041.099,-37.92858
1041.266,30.82897
1041.432,-3.55292
1041.599,49.1698
1041.766,-58.08422
1041.933,-91.33976
1042.099,-21.86998
1042.266,94.65535
1042.433,4.24874
1042.6,1.029
1042.766,-2.63517
1042.933,39.43765
1043.1,-4.93108
1043.266,-39.32622
1043.433,12.04415
1043.6,16.60754
1043.766,-20.50832
1043.933,-28.78421
1044.099,63.44163
1044.266,8.82104
1044.433,-39.27991
1044.599,20.73583
1044.766,-20.5051
1044.932,-33.33982
1045.099,-5.85321
1045.265,58.2568
1045.432,-28.71883
1045.598,-3.55208
1045.765,-32.9515
1045.931,-21.84952
1046.097,-12.25743
