wavelength_nm,intensity
345.386,-75.41605
345.605,-75.41605
345.824,-75.41605
346.044,-88.95672
346.263,-80.00106
346.482,3.66695
346.701,3.66595
346.92,-22.28936
347.139,-15.52092
347.358,38.65221
347.577,39.71867
347.796,-23.41748
348.015,23.98734
348.234,-24.54841
348.453,-23.43294
348.672,2.53821
348.891,-3.10304
349.11,-14.3885
349.329,-6.48629
349.548,-21.16941
349.767,61.16852
349.986,8.17663
350.205,57.78035
350.424,-33.59206
350.643,12.69918
350.862,26.23176
351.08,69.06258
351.299,67.8737
351.518,-4.22791
351.737,62.30445
351.956,17.19382
352.174,4.79626
352.393,11.55673
352.612,-0.84589
352.831,3.66468
353.049,25.10594
353.268,28.47505
353.487,13.80957
353.705,-3.10448
353.924,-12.13336
354.143,5.92284
354.361,-23.42293
354.58,18.33792
354.798,-10.9968
355.017,29.60677
355.236,-4.23199
355.454,-16.6578
355.673,10.44276
355.891,87.11358
356.11,-6.48981
356.328,28.49046
356.547,-27.92629
356.765,-21.15873
356.984,-5.36063
357.202,22.8563
357.42,2.54018
357.639,-4.23003
357.857,57.8138
358.076,19.4525
358.294,43.128
358.512,43.14464
358.731,25.08752
358.949,29.58853
359.167,83.66771
359.386,-0.8455
359.604,2.5389
359.822,52.13621
360.04,17.21044
360.259,-14.38627
360.477,19.4683
360.695,-3.10136
360.913,3.66822
361.131,26.21152
361.35,16.05864
361.568,-1.9747
361.786,19.46528
362.004,38.61193
362.222,52.17039
362.44,58.90664
362.658,26.24905
362.876,55.51696
363.094,23.9623
363.312,28.50592
363.53,19.45175
363.749,53.27681
363.967,-3.10232
364.184,22.82104
364.402,45.40935
364.62,50.98053
364.838,52.14625
365.056,60.0932
365.274,2.53949
365.492,-0.84543
365.71,46.50791
365.928,78.07101
366.146,30.72576
366.364,39.74311
366.581,57.80933
366.799,90.46702
367.017,34.10119
367.235,20.58932
367.453,10.42904
367.67,62.27567
367.888,7.0525
368.106,51.02171
368.323,73.51344
368.541,-23.41476
368.759,5.92307
368.977,72.47741
369.194,18.32871
369.412,37.50264
369.629,10.42503
369.847,85.9313
370.065,60.08157
370.282,38.63427
370.5,45.37084
370.717,52.10818
370.935,31.85761
371.152,61.14263
371.37,74.70468
371.588,58.89078
371.805,89.46236
372.022,34.1117
372.24,56.63658
372.457,31.84289
372.675,16.07473
372.892,48.82321
373.11,27.33311
373.327,1.4102
373.544,-15.5107
373.762,51.03154
373.979,80.27332
374.196,9.30247
374.414,92.73237
374.631,37.45795
374.848,104.00691
375.066,47.64915
375.283,49.86824
375.5,5.92238
375.717,56.6912
375.935,35.24412
376.152,115.25485
376.369,103.86737
376.586,0.28235
376.803,87.08673
377.02,91.64556
377.238,87.06998
377.455,53.32419
377.672,80.29489
377.889,17.20444
378.106,79.19077
378.323,30.70922
378.54,8.17821
378.757,106.17205
378.974,107.31706
379.191,38.63875
379.408,70.17797
379.625,44.24106
379.842,30.73169
380.059,66.80232
380.276,67.89975
380.493,88.23617
380.71,29.57943
380.927,64.50027
381.143,31.8209
381.36,92.73237
381.577,60.04677
381.794,75.8104
382.011,73.55298
382.228,128.69723
382.444,55.46586
382.661,19.46076
382.878,29.59308
383.095,47.65651
383.311,50.97662
383.528,70.17527
383.745,31.87361
383.962,100.69642
384.178,16.06729
384.395,28.47395
384.612,22.83863
384.828,120.74961
385.045,74.67592
385.261,128.63816
385.478,58.91572
385.695,107.37893
385.911,60.00289
386.128,48.71791
386.344,93.87972
386.561,66.76893
386.777,92.6363
386.994,82.56148
387.21,133.14705
387.427,97.22721
387.643,52.18451
387.86,78.13734
388.076,82.46665
388.292,65.65338
388.509,105.04353
388.725,69.036
388.942,43.09816
389.158,36.35722
389.374,1.40895
389.591,42.00452
389.807,58.92026
390.023,142.20939
390.239,111.83673
390.456,64.55983
390.672,67.91802
390.888,28.46737
391.104,80.25794
391.321,120.90712
391.537,75.79874
391.753,84.77017
391.969,109.49917
392.185,39.72172
392.401,32.97959
392.618,45.36037
392.834,138.71613
393.05,119.68093
393.266,111.77247
393.482,137.79885
393.698,119.73602
393.914,96.03905
394.13,37.41505
394.346,121.9291
394.562,120.80041
394.778,63.40893
394.994,170.37998
395.21,118.61136
395.426,100.62261
395.642,87.11694
395.858,67.8763
396.073,128.80106
396.289,89.24549
396.505,96.10178
396.721,30.72103
396.937,80.24565
397.153,109.54526
397.369,83.64846
397.584,93.82192
397.8,111.83673
398.016,128.65291
398.232,139.98336
398.447,180.4805
398.663,81.38593
398.879,99.59322
399.094,97.18239
399.31,141.15605
399.526,125.28666
399.741,102.74732
399.957,156.81396
400.173,79.23351
400.388,123.03429
400.604,162.52251
400.82,129.75668
401.035,67.90758
401.251,129.66771
401.466,82.52346
401.682,119.62602
401.897,92.62921
402.113,129.67757
402.328,107.22677
402.544,74.64438
402.759,120.69897
402.974,155.47748
403.19,139.83364
403.405,177.02389
403.621,143.18542
403.836,160.26298
404.051,95.97296
404.267,128.64308
404.482,93.7572
404.697,162.33009
404.913,155.57202
405.128,226.6276
405.343,207.28173
405.559,113.98127
405.774,130.80028
405.989,192.59415
406.204,127.44173
406.42,174.7257
406.635,163.35919
406.85,237.36566
407.065,166.79979
407.28,142.08452
407.495,142.1116
407.71,213.99131
407.926,128.5255
408.141,198.35692
408.356,229.86125
408.571,208.44243
408.786,175.86122
409.001,187.9816
409.216,211.91094
409.431,174.73902
409.646,199.4558
409.861,192.69661
410.076,218.44918
410.291,204.81432
410.506,191.46585
410.721,154.44965
410.936,197.10777
411.15,209.5318
411.365,143.04968
411.58,285.9597
411.795,224.19569
412.01,216.28203
412.225,207.14029
412.439,144.22573
412.654,237.43736
412.869,217.20533
413.084,195.91988
413.299,184.683
413.513,212.97577
413.728,175.7009
413.943,236.24645
414.157,318.39171
414.372,173.54408
414.587,236.30889
414.801,182.39961
415.016,238.33231
415.231,173.63001
415.445,202.79701
415.66,205.00051
415.874,228.45395
416.089,228.5924
416.304,189.2381
416.518,242.11672
416.733,212.72542
416.947,179.20029
417.162,223.81422
417.376,235.32292
417.59,201.39341
417.805,194.76232
418.019,173.61015
418.234,219.35398
418.448,226.2829
418.663,179.13218
418.877,266.76266
419.091,260.03568
419.306,266.86384
419.52,233.93735
419.734,282.33419
419.949,303.42909
420.163,221.5509
420.377,206.21552
420.591,219.42017
420.806,235.1006
421.02,193.74454
421.234,199.31193
421.448,220.51487
421.663,230.68461
421.877,212.62107
422.091,227.28269
422.305,255.25786
422.519,209.40467
422.733,207.06201
422.947,219.51142
423.161,275.71652
423.376,277.99666
423.59,261.69328
423.804,285.64628
424.018,272.33852
424.232,229.3489
424.446,270.78067
424.66,288.03467
424.874,271.34275
425.088,207.17951
425.302,282.88992
425.515,237.49123
425.729,285.75408
425.943,256.28961
426.157,215.03052
426.371,324.90364
426.585,327.82495
426.799,296.83708
427.013,257.51415
427.226,304.59196
427.44,274.59743
427.654,256.33777
427.868,291.07241
428.081,216.11809
428.295,280.17128
428.509,260.57616
428.723,256.39563
428.936,218.38299
429.15,266.82333
429.364,271.91841
429.577,265.48259
429.791,235.44809
430.005,292.34354
430.218,234.06092
430.432,254.00569
430.645,244.08927
430.859,227.13719
431.073,276.51224
431.286,183.49954
431.5,251.97815
431.713,271.00448
431.927,288.95707
432.14,262.26487
432.354,256.20311
432.567,199.30438
432.781,244.08927
432.994,317.88905
433.207,296.54754
433.421,219.38706
433.634,269.06254
433.848,368.43099
434.061,293.54987
434.274,258.6521
434.488,279.96002
434.701,312.45878
434.914,310.23607
435.127,282.16411
435.341,322.31823
435.554,295.46396
435.767,246.21594
435.98,236.051
436.194,303.29265
436.407,272.07156
436.62,254.20637
436.833,307.85118
437.046,315.45568
437.259,320.36207
437.473,381.90122
437.686,275.39446
437.899,307.85118
438.112,366.95886
438.325,270.89241
438.538,246.16971
438.751,296.43673
438.964,505.49619
439.177,314.61034
439.39,335.5713
439.603,386.21792
439.816,298.89287
440.029,357.01894
440.242,392.46791
440.455,361.6147
440.668,383.50272
440.881,253.90103
441.094,325.91057
441.306,327.92292
441.519,383.57383
441.732,389.18533
441.945,358.34854
442.158,395.92532
442.37,356.88584
442.583,418.49955
442.796,378.93594
443.009,450.54313
443.222,435.34444
443.434,338.35836
443.647,435.05347
443.86,445.08204
444.072,469.85648
444.285,406.08156
444.498,446.42609
444.71,381.38876
444.923,380.11966
445.136,426.10376
445.348,380.47293
445.561,385.04558
445.773,389.44594
445.986,381.26143
446.198,414.98892
446.411,416.07127
446.623,455.44587
446.836,402.24884
447.048,428.15497
447.261,437.29486
447.473,395.70532
447.686,456.01789
447.898,468.36285
448.11,446.69691
448.323,664.37247
448.535,512.12814
448.748,486.30065
448.96,459.13235
449.172,493.8588
449.385,529.81711
449.597,435.81154
449.809,457.24752
450.021,520.68671
450.234,460.46355
450.446,499.00727
450.658,479.86432
450.87,403.77932
451.083,546.64358
451.295,480.70933
451.507,500.35469
451.719,357.81438
451.931,430.14142
452.143,562.50192
452.356,396.584
452.568,451.22258
452.78,568.87269
452.992,486.89199
453.204,492.62169
453.416,445.01614
453.628,548.32077
453.84,481.73161
454.052,488.14513
454.264,537.52666
454.476,586.47928
454.688,548.68118
454.9,509.02649
455.112,565.25449
455.324,484.8679
455.536,478.68156
455.747,496.51661
455.959,496.58904
456.171,552.47043
456.383,483.89993
456.595,570.88093
456.807,497.08001
457.018,468.08687
457.23,510.35956
457.442,529.46657
457.654,489.9526
457.865,464.6009
458.077,548.31888
458.289,502.77714
458.501,531.7436
458.712,526.27385
458.924,589.16198
459.136,509.77476
459.347,572.84615
459.559,503.8687
459.77,531.6071
459.982,559.40331
460.194,598.14705
460.405,471.43617
460.617,580.17833
460.828,579.13451
461.04,514.25231
461.251,578.47061
461.463,707.77414
461.674,555.15299
461.886,650.31769
462.097,519.23385
462.309,565.96943
462.52,558.29504
462.731,554.48423
462.943,563.46591
463.154,525.75339
463.366,578.19588
463.577,602.70599
463.788,618.7447
464.0,629.97964
464.211,576.00114
464.422,609.81156
464.634,623.09866
464.845,626.84507
465.056,681.49961
465.267,697.66528
465.478,576.94108
465.69,602.4866
465.901,652.73747
466.112,587.01212
466.323,601.00904
466.534,655.60679
466.745,769.62693
466.957,638.91397
467.168,634.08013
467.379,670.53953
467.59,619.01372
467.801,614.05623
468.012,675.0261
468.223,691.77304
468.434,686.65221
468.645,691.35129
468.856,683.73015
469.067,707.26548
469.278,627.49649
469.489,627.33806
469.7,680.91053
469.911,675.92834
470.122,693.45086
470.333,750.62277
470.543,675.34206
470.754,728.47318
470.965,685.59771
471.176,654.89812
471.387,750.86535
471.598,743.66434
471.808,677.35476
472.019,693.22558
472.23,753.20508
472.441,713.26623
472.651,782.03196
472.862,715.72771
473.073,852.27782
473.283,729.62804
473.494,784.5395
473.705,781.82497
473.915,821.83163
474.126,873.98001
474.337,792.35489
474.547,793.31383
474.758,780.68201
474.968,796.3591
475.179,829.54024
475.389,851.57129
475.6,931.68297
475.81,936.32329
476.021,888.86023
476.231,815.74377
476.442,865.93749
476.652,810.56342
476.863,867.21585
477.073,854.31307
477.284,839.96306
477.494,901.92674
477.704,929.55674
477.915,908.44123
478.125,842.7244
478.335,962.20097
478.546,965.38611
478.756,907.31311
478.966,920.85345
479.177,991.39136
479.387,986.9095
479.597,937.39165
479.807,975.38201
480.018,947.08624
480.228,941.54315
480.438,936.99686
480.648,936.46054
480.858,1066.05104
481.068,1040.83163
481.279,1061.86897
481.489,1048.95087
481.699,1011.93234
481.909,1032.56017
482.119,1105.61228
482.329,1046.36408
482.539,1159.74921
482.749,1070.82406
482.959,1079.51872
483.169,1144.15386
483.379,1219.02209
483.589,1245.72603
483.799,1123.19343
484.009,1123.7714
484.219,1233.48944
484.429,1136.80494
484.639,1137.62622
484.849,1166.71936
485.059,1186.18869
485.268,1165.52364
485.478,1207.87884
485.688,1184.49376
485.898,1175.75222
486.108,1198.23665
486.317,1259.62845
486.527,1228.55435
486.737,1220.19962
486.947,1238.88193
487.156,1293.99813
487.366,1307.37777
487.576,1275.16684
487.785,1237.49342
487.995,1342.53052
488.205,1250.56276
488.414,1274.56351
488.624,1249.49337
488.834,1249.66354
489.043,1288.49301
489.253,1261.18398
489.462,1345.37158
489.672,1345.56695
489.882,1271.04091
490.091,1280.03042
490.301,1300.11968
490.51,1320.85386
490.72,1300.64744
490.929,1294.08527
491.138,1379.55207
491.348,1343.8379
491.557,1286.84323
491.767,1342.30266
491.976,1380.27342
492.185,1283.28463
492.395,1325.96107
492.604,1421.677
492.813,1360.86669
493.023,1312.91064
493.232,1337.20649
493.441,1401.36238
493.651,1457.29297
493.86,1408.22952
494.069,1355.4815
494.278,1402.26175
494.488,1427.59305
494.697,1329.8487
494.906,1353.40052
495.115,1415.70357
495.324,1379.80702
495.533,1408.37048
495.743,1471.29213
495.952,1457.88893
496.161,1467.16945
496.37,1469.12463
496.579,1504.29565
496.788,1516.63504
496.997,1471.00093
497.206,1549.30814
497.415,1449.29708
497.624,1564.34192
497.833,1545.93162
498.042,1602.69046
498.251,1530.09544
498.46,1504.36196
498.669,1529.49825
498.878,1590.7474
499.087,1514.68082
499.296,1544.99656
499.504,1628.39134
499.713,1520.74975
499.922,1642.1077
500.131,1590.38314
500.34,1583.05657
500.549,1559.41881
500.757,1588.63721
500.966,1510.85055
501.175,1609.01946
501.384,1650.87397
501.592,1615.83408
501.801,1691.90684
502.01,1636.41817
502.218,1698.87573
502.427,1622.02148
502.636,1658.2849
502.844,1586.94706
503.053,1667.14348
503.262,1629.757
503.47,1621.91614
503.679,1703.71585
503.887,1632.98142
504.096,1709.93453
504.304,1629.95634
504.513,1619.6086
504.721,1680.03987
504.93,1576.59141
505.138,1640.29125
505.347,1802.66704
505.555,1639.11053
505.764,1530.5259
505.972,1590.82574
506.18,1636.24403
506.389,1660.71109
506.597,1659.57496
506.806,1659.95294
507.014,1687.11994
507.222,1683.95364
507.431,1559.21341
507.639,1688.61241
507.847,1587.41422
508.055,1699.09753
508.264,1707.04639
508.472,1675.36333
508.68,1686.81161
508.888,1695.65271
509.096,1700.08356
509.305,1721.20764
509.513,1642.11196
509.721,1666.28529
509.929,1623.90777
510.137,1628.57633
510.345,1646.78605
510.553,1581.87649
510.762,1699.75254
510.97,1760.67909
511.178,1670.49498
511.386,1771.16243
511.594,1642.66419
511.802,1722.92099
512.01,1657.47874
512.218,1656.45834
512.426,1711.58349
512.634,1751.98972
512.842,1738.50633
513.049,1774.45466
513.257,1650.98084
513.465,1696.09156
513.673,1734.83223
513.881,1723.08793
514.089,1785.44121
514.297,1770.21168
514.504,1720.03592
514.712,1706.21917
514.92,1719.44603
515.128,1685.97703
515.336,1808.83066
515.543,1800.50925
515.751,1695.43365
515.959,1778.53936
516.166,1735.96079
516.374,1769.49425
516.582,1845.04099
516.789,1777.26967
516.997,1802.72514
517.205,1722.12633
517.412,1676.43721
517.62,1810.0752
517.827,1739.40288
518.035,1843.84363
518.243,1784.54186
518.45,1739.00496
518.658,1709.69155
518.865,1745.67431
519.073,1716.76102
519.28,1793.5163
519.488,1788.90839
519.695,1727.89475
519.902,1755.37553
520.11,1769.02633
520.317,1748.09836
520.525,1736.46553
520.732,1751.59518
520.939,1766.6201
521.147,1615.60154
521.354,1734.09557
521.561,1755.10408
521.769,1749.39503
521.976,1690.90671
522.183,1780.65693
522.391,1673.75849
522.598,1806.74713
522.805,1694.05419
523.012,1738.73009
523.219,1761.52434
523.427,1727.32356
523.634,1706.10913
523.841,1786.56994
524.048,1758.54116
524.255,1826.01619
524.462,1738.04981
524.669,1806.14551
524.877,1773.14179
525.084,1770.55333
525.291,1764.45623
525.498,1791.23718
525.705,1725.84765
525.912,1819.65237
526.119,1765.13709
526.326,1725.74973
526.533,1765.08027
526.74,1810.48254
526.947,1747.31382
527.153,1825.06263
527.36,1810.71404
527.567,1859.65517
527.774,1856.09086
527.981,1779.72955
528.188,1811.20713
528.395,1839.15096
528.602,1866.01353
528.808,1843.79509
529.015,1763.77762
529.222,1898.48947
529.429,1802.26726
529.635,1784.63988
529.842,1812.24459
530.049,1848.78041
530.256,1821.99087
530.462,1762.64993
530.669,1822.8053
530.876,1865.36017
531.082,1835.47159
531.289,1850.44785
531.495,1786.26778
531.702,1818.00079
531.909,1870.34832
532.115,1928.361
532.322,1854.06999
532.528,1912.12121
532.735,1846.05181
532.941,1878.00819
533.148,1825.29626
533.354,1837.64977
533.561,1855.08046
533.767,1911.45149
533.974,1868.50731
534.18,1865.77505
534.387,1898.02331
534.593,1761.01522
534.799,1889.22417
535.006,1829.56244
535.212,1854.31277
535.418,1849.01665
535.625,1791.77727
535.831,1865.77769
536.037,1900.10009
536.244,1927.29296
536.45,1868.92381
536.656,1827.08643
536.862,1840.54409
537.068,1840.71924
537.275,1853.71539
537.481,1920.97838
537.687,1842.66679
537.893,1848.30871
538.099,1852.05648
538.305,1936.44208
538.512,1900.92726
538.718,1921.46796
538.924,1886.26719
539.13,1963.54354
539.336,1878.32576
539.542,1893.92938
539.748,1866.66605
539.954,1858.47144
540.16,1944.19365
540.366,1889.40347
540.572,1912.03401
540.778,1917.65371
540.984,1926.47281
541.19,1807.29742
541.396,1868.56873
541.602,1860.78684
541.807,1886.08726
542.013,1884.3603
542.219,1823.40963
542.425,1948.42395
542.631,1846.16946
542.837,1855.91342
543.042,1897.58072
543.248,1861.8624
543.454,1938.73288
543.66,1900.76479
543.865,1874.03615
544.071,1821.73495
544.277,1801.07365
544.483,1815.97632
544.688,1799.38213
544.894,1865.71562
545.1,1782.93321
545.305,1861.97537
545.511,1817.16272
545.716,1805.82323
545.922,1929.7635
546.128,1860.60606
546.333,1835.69348
546.539,1826.42517
546.744,1773.42648
546.95,1792.82501
547.155,1832.90602
547.361,1834.01245
547.566,1779.2022
547.772,1840.16221
547.977,1809.24016
548.182,1845.65556
548.388,1808.40032
548.593,1817.39512
548.799,1840.52755
549.004,1890.65125
549.209,1885.07838
549.415,1794.83225
549.62,1844.55986
549.825,1859.47725
550.031,1827.37861
550.236,1821.6428
550.441,1857.63846
550.646,1795.0041
550.852,1927.5989
551.057,1878.66473
551.262,1953.59911
551.467,1895.63279
551.672,1803.33748
551.878,1811.00124
552.083,1846.18209
552.288,1879.5544
552.493,1827.86472
552.698,1905.0194
552.903,1903.78936
553.108,1949.92092
553.313,1971.06042
553.518,1875.75622
553.723,1846.94496
553.928,1848.26168
554.133,1892.90771
554.338,1921.68182
554.543,1874.38842
554.748,1924.45959
554.953,1894.93788
555.158,1905.36422
555.363,1805.5029
555.568,1986.62365
555.773,1964.34804
555.978,1978.21173
556.182,1857.99978
556.387,1875.22539
556.592,1852.77268
556.797,1910.01866
557.002,1987.18702
557.206,2050.30217
557.411,1955.99679
557.616,1886.08726
557.821,1920.47188
558.025,1931.86922
558.23,2011.13965
558.435,1911.75451
558.64,1962.84768
558.844,1943.64063
559.049,1904.95906
559.253,1931.23292
559.458,1868.63395
559.663,1841.01148
559.867,1945.83661
560.072,1929.64149
560.276,1874.98051
560.481,1834.18702
560.685,1915.33646
560.89,1885.4886
561.094,1905.11155
561.299,1850.99966
561.503,1923.02898
561.708,1919.24379
561.912,1866.13194
562.117,1857.23557
562.321,1948.87795
562.525,1963.40502
562.73,1871.23907
562.934,1868.68553
563.139,1903.75568
563.343,1992.01898
563.547,1871.71425
563.752,1864.52757
563.956,1913.64844
564.16,1959.13658
564.364,1904.69951
564.569,1860.20606
564.773,1923.21055
564.977,1881.10208
565.181,1895.94633
565.385,1894.56475
565.59,1947.51939
565.794,1924.36406
565.998,1894.31892
566.202,1912.79895
566.406,2000.17345
566.61,1934.76864
566.814,1935.5299
567.018,1928.23869
567.222,1934.06419
567.426,1887.79798
567.63,1903.71004
567.834,1942.12
568.038,1907.7256
568.242,1837.51148
568.446,1924.33837
568.65,1922.74938
568.854,1936.44208
569.058,2004.56505
569.262,1880.3326
569.466,1814.906
569.67,1952.85662
569.874,1883.59053
570.078,1830.74654
570.281,1756.89979
570.485,1876.93818
570.689,1832.45581
570.893,1856.62827
571.097,1888.21095
571.3,1890.30222
571.504,2017.60052
571.708,1944.61121
571.912,1883.35148
572.115,1851.52741
572.319,1950.04394
572.523,1815.66111
572.726,1883.42021
572.93,1918.04515
573.133,1835.37283
573.337,1886.07917
573.541,1860.01158
573.744,1877.65093
573.948,1825.47165
574.151,1804.66339
574.355,1886.7965
574.558,1815.10801
574.762,1929.55144
574.965,1875.39785
575.169,1868.74497
575.372,1803.10024
575.576,1831.79432
575.779,1845.68877
575.983,1879.43493
576.186,1860.01959
576.389,1841.29103
576.593,1821.46898
576.796,1814.55841
577.0,1798.15818
577.203,1748.21068
577.406,1929.73521
577.609,1821.93282
577.813,1821.93282
578.016,1849.67312
578.219,1793.99084
578.423,1774.27013
578.626,1830.41398
578.829,1899.57502
579.032,1763.44125
579.235,1904.67633
579.438,1781.59804
579.642,1763.38281
579.845,1825.2006
580.048,1812.59157
580.251,1841.30413
580.454,1858.05021
580.657,1819.28138
580.86,1763.56176
581.063,1748.73022
581.266,1883.9496
581.469,1796.03822
581.672,1830.35547
581.875,1891.70818
582.078,1847.46796
582.281,1754.75735
582.484,1758.3647
582.687,1879.25273
582.89,1844.44202
583.093,1760.73577
583.296,1837.61138
583.499,1865.00295
583.702,1822.63051
583.904,1831.17778
584.107,1816.46707
584.31,1783.69986
584.513,1820.00198
584.716,1789.93715
584.918,1777.5413
585.121,1852.58688
585.324,1834.87049
585.527,1847.42709
585.729,1827.86472
585.932,1873.97115
586.135,1781.58677
586.337,1839.03343
586.54,1826.56151
586.743,1833.2583
586.945,1862.74508
587.148,1749.05789
587.35,1826.75912
587.553,1798.46868
587.755,1848.07325
587.958,1743.82024
588.161,1816.06884
588.363,1722.4049
588.566,1801.56629
588.768,1810.19121
588.971,1748.54803
589.173,1787.9099
589.375,1778.51331
589.578,1815.97632
589.78,1772.01349
589.983,1853.83352
590.185,1828.06906
590.387,1737.15495
590.59,1759.22497
590.792,1711.03251
590.994,1765.59227
591.197,1642.50519
591.399,1765.03313
591.601,1759.66377
591.803,1634.75963
592.006,1683.24625
592.208,1717.41595
592.41,1645.17588
592.612,1625.89907
592.815,1667.30274
593.017,1666.98753
593.219,1617.93189
593.421,1640.77041
593.623,1598.12441
593.825,1694.85466
594.027,1684.28098
594.229,1665.39229
594.432,1653.88168
594.634,1681.98831
594.836,1651.99898
595.038,1609.01551
595.24,1561.98382
595.442,1616.27902
595.644,1602.37609
595.846,1581.47401
596.048,1611.79534
596.249,1578.13962
596.451,1566.08617
596.653,1546.68758
596.855,1598.7827
597.057,1570.1882
597.259,1654.42223
597.461,1523.55477
597.663,1697.24818
597.864,1575.58256
598.066,1585.57311
598.268,1571.82698
598.47,1557.87855
598.671,1496.24922
598.873,1488.99577
599.075,1552.03842
599.277,1527.76585
599.478,1527.26418
599.68,1568.39487
599.882,1575.36566
600.083,1480.41757
600.285,1603.55679
600.487,1540.14137
600.688,1526.38707
600.89,1635.22173
601.091,1577.9973
601.293,1557.11038
601.494,1623.86474
601.696,1541.8416
601.898,1600.3288
602.099,1556.39111
602.301,1569.26349
602.502,1628.12466
602.703,1645.81836
602.905,1624.2066
603.106,1587.45346
603.308,1528.8182
603.509,1609.9902
603.711,1610.40501
603.912,1534.10292
604.113,1558.39214
604.315,1647.59285
604.516,1676.70897
604.717,1588.95918
604.919,1559.57181
605.12,1518.46485
605.321,1559.82823
605.522,1608.28104
605.724,1614.23399
605.925,1590.7474
606.126,1727.53695
606.327,1670.07539
606.528,1585.36523
606.729,1646.57063
606.931,1578.50273
607.132,1538.5791
607.333,1598.57417
607.534,1667.16123
607.735,1674.03056
607.936,1687.57984
608.137,1634.32165
608.338,1628.68213
608.539,1675.81448
608.74,1597.37957
608.941,1698.32445
609.142,1679.82197
609.343,1705.42143
609.544,1603.55679
609.745,1687.94039
609.946,1655.54604
610.147,1682.51543
610.348,1581.04982
610.549,1721.77804
610.75,1624.5937
610.95,1612.16348
611.151,1677.23956
611.352,1653.88168
611.553,1657.90985
611.754,1678.60092
611.954,1682.71656
612.155,1654.3097
612.356,1662.31268
612.557,1630.92533
612.757,1647.64644
612.958,1693.94444
613.159,1705.32156
613.359,1607.9129
613.56,1677.32734
613.761,1675.79808
613.961,1623.13107
614.162,1579.32023
614.362,1582.43553
614.563,1687.19535
614.764,1608.20185
614.964,1631.08521
615.165,1606.12884
615.365,1599.80631
615.566,1628.49812
615.766,1683.62683
615.967,1628.55153
616.167,1621.70564
616.368,1578.647
616.568,1656.24805
616.768,1661.29238
616.969,1631.46857
617.169,1655.70609
617.37,1561.16271
617.57,1669.63826
617.77,1583.77031
617.971,1685.34709
618.171,1725.84765
618.371,1609.14653
618.571,1621.98831
618.772,1732.00596
618.972,1615.31881
619.172,1544.50008
619.372,1561.88163
619.573,1573.88354
619.773,1684.91824
619.973,1563.42049
620.173,1607.65991
620.373,1569.77665
620.573,1550.79994
620.774,1638.61083
620.974,1573.87701
621.174,1647.1112
621.374,1531.35167
621.574,1556.4423
621.774,1561.11156
621.974,1621.03286
622.174,1586.19813
622.374,1632.05411
622.574,1658.0158
622.774,1497.87311
622.974,1608.83111
623.174,1562.70366
623.374,1616.5541
623.574,1568.34334
623.774,1527.03985
623.973,1585.12113
624.173,1631.62809
624.373,1548.90928
624.573,1627.10212
624.773,1505.22524
624.973,1591.92801
625.172,1562.7539
625.372,1577.98422
625.572,1625.17603
625.772,1650.54854
625.971,1576.02974
626.171,1607.15235
626.371,1637.91906
626.57,1570.69908
626.77,1571.62611
626.97,1584.65244
627.169,1551.05497
627.369,1564.91074
627.569,1638.98768
627.768,1627.27376
627.968,1579.87876
628.167,1569.16961
628.367,1614.0309
628.566,1561.77755
628.766,1553.31086
628.965,1572.96162
629.165,1586.44172
629.364,1566.29205
629.564,1496.06177
629.763,1603.95316
629.963,1500.51544
630.162,1552.38802
630.362,1590.90373
630.561,1516.70883
630.76,1492.77503
630.96,1508.80892
631.159,1448.10073
631.358,1581.37016
631.558,1549.66615
631.757,1538.68075
631.956,1471.68116
632.155,1493.85414
632.355,1504.09716
632.554,1488.45831
632.753,1544.78671
632.952,1529.19582
633.152,1507.12147
633.351,1499.64643
633.55,1471.57755
633.749,1536.16913
633.948,1539.29184
634.147,1451.65018
634.346,1415.52028
634.545,1434.49057
634.744,1455.24682
634.944,1445.74605
635.143,1480.36385
635.342,1530.93005
635.541,1504.77905
635.74,1531.55347
635.939,1396.65544
636.138,1535.44595
636.336,1526.60014
636.535,1499.52997
636.734,1497.53766
636.933,1476.82983
637.132,1451.7676
637.331,1580.04795
637.53,1576.19295
637.729,1518.66528
637.928,1485.86128
638.126,1501.65549
638.325,1527.37497
638.524,1518.66528
638.723,1530.67735
638.921,1529.43124
639.12,1515.6093
639.319,1518.84295
639.518,1501.20852
639.716,1463.78613
639.915,1464.07664
640.114,1482.37568
640.312,1492.57748
640.511,1454.57385
640.71,1490.22232
640.908,1416.07824
641.107,1518.61516
641.305,1531.53795
641.504,1510.46787
641.702,1478.26059
641.901,1527.99814
642.099,1482.37568
642.298,1494.10154
642.496,1575.63449
642.695,1477.51748
642.893,1447.81097
643.092,1451.2882
643.29,1491.15347
643.489,1491.59715
643.687,1472.46844
643.885,1438.11193
644.084,1480.86389
644.282,1484.68001
644.48,1513.59854
644.679,1420.69064
644.877,1471.38197
645.075,1432.10615
645.274,1420.9192
645.472,1464.02819
645.67,1392.64015
645.868,1494.93321
646.067,1528.70748
646.265,1500.44349
646.463,1492.78571
646.661,1452.6821
646.859,1407.24604
647.057,1502.28726
647.256,1319.96547
647.454,1481.09934
647.652,1494.4981
647.85,1413.25911
648.048,1427.65523
648.246,1333.68048
648.444,1457.55076
648.642,1484.0572
648.84,1421.97692
649.038,1378.12542
649.236,1492.15335
649.434,1379.11535
649.632,1338.06547
649.83,1434.26748
650.028,1426.83485
650.226,1336.79612
650.423,1401.78544
650.621,1402.11582
650.819,1317.09591
651.017,1324.96658
651.215,1365.91588
651.413,1353.40639
651.61,1374.143
651.808,1260.45808
652.006,1336.07231
652.204,1299.34255
652.401,1362.758
652.599,1327.1787
652.797,1257.82035
652.995,1313.79757
653.192,1314.26038
653.39,1372.89769
653.588,1256.88329
653.785,1372.52967
653.983,1298.126
654.18,1357.47825
654.378,1427.00402
654.576,1307.22603
654.773,1291.00639
654.971,1358.94809
655.168,1231.60584
655.366,1357.06644
655.563,1334.1298
655.761,1214.34161
655.958,1179.70126
656.156,1278.85943
656.353,1306.27398
656.55,1307.66658
656.748,1349.66448
656.945,1247.17983
657.143,1181.15043
657.34,1294.95929
657.537,1348.18055
657.735,1249.85801
657.932,1264.527
658.129,1259.91243
658.326,1237.16285
658.524,1253.75314
658.721,1267.2259
658.918,1203.98251
659.115,1171.64091
659.313,1295.39811
659.51,1243.01718
659.707,1202.71055
659.904,1233.40523
660.101,1307.42208
660.298,1166.04057
660.496,1185.41975
660.693,1256.90498
660.89,1204.59782
661.087,1280.5928
661.284,1195.61204
661.481,1210.36486
661.678,1237.66105
661.875,1200.68082
662.072,1287.92666
662.269,1233.86158
662.466,1229.09784
662.663,1244.42887
662.86,1205.95139
663.057,1236.40762
663.254,1241.39457
663.45,1177.89405
663.647,1236.83485
663.844,1246.57401
664.041,1185.17776
664.238,1234.82078
664.435,1245.47254
664.631,1205.3975
664.828,1316.65076
665.025,1209.44275
665.222,1212.74702
665.419,1199.55305
665.615,1215.11297
665.812,1212.92407
666.009,1219.02209
666.205,1219.69345
666.402,1219.19599
666.599,1164.11898
666.795,1296.26358
666.992,1228.67988
667.188,1278.24951
667.385,1277.38057
667.582,1256.43844
667.778,1280.33264
667.975,1281.28773
668.171,1193.64079
668.368,1275.82059
668.564,1253.96641
668.761,1248.53455
668.957,1287.88318
669.154,1301.08858
669.35,1308.88335
669.547,1271.1703
669.743,1252.60564
669.939,1207.73628
670.136,1163.25102
670.332,1287.5477
670.528,1208.00171
670.725,1248.72993
670.921,1234.32377
671.117,1174.26425
671.314,1185.09719
671.51,1257.50004
671.706,1218.28825
671.902,1218.94788
672.099,1253.15756
672.295,1264.92702
672.491,1215.67737
672.687,1266.28581
672.883,1330.91972
673.08,1224.54121
673.276,1264.78473
673.472,1220.28243
673.668,1223.03709
673.864,1219.61043
674.06,1211.91969
674.256,1184.49956
674.452,1266.43095
674.648,1217.43682
674.844,1222.65931
675.04,1225.41932
675.236,1194.68763
675.432,1246.76974
675.628,1267.39744
675.824,1238.91489
676.02,1262.78459
676.216,1243.30079
676.412,1194.32107
676.608,1286.75506
676.804,1159.90812
676.999,1223.9989
677.195,1193.71214
677.391,1209.81557
677.587,1141.04394
677.783,1185.66214
677.978,1194.36175
678.174,1164.98211
678.37,1183.89113
678.566,1222.37226
678.761,1178.73425
678.957,1182.3186
679.153,1189.57463
679.348,1184.41303
679.544,1192.14642
679.74,1189.01633
679.935,1183.36586
680.131,1204.04533
680.327,1186.26986
680.522,1169.98528
680.718,1151.00052
680.913,1166.31968
681.109,1158.77974
681.304,1157.69106
681.5,1145.47782
681.695,1202.07551
681.891,1199.48839
682.086,1152.28672
682.282,1175.83122
682.477,1451.55502
682.672,1165.31109
682.868,1121.66929
683.063,1180.42934
683.259,1162.10206
683.454,1126.76927
683.649,1180.34817
683.845,1153.25698
684.04,1120.3101
684.235,1128.29132
684.43,1090.09145
684.626,1223.95602
684.821,1082.71765
685.016,1156.38763
685.211,1206.32034
685.407,1166.81009
685.602,1138.44153
685.797,1202.69498
685.992,1130.26946
686.187,1092.91157
686.382,1077.60834
686.577,1123.65562
686.773,1151.59324
686.968,1138.36319
687.163,1123.0013
687.358,1114.59433
687.553,1151.51407
687.748,1086.93179
687.943,1124.97694
688.138,1095.40097
688.333,1107.56367
688.528,1062.26289
688.723,1098.96762
688.918,1062.08988
689.112,1067.84545
689.307,1084.89992
689.502,1028.24686
689.697,1042.86571
689.892,1111.28773
690.087,993.23261
690.282,1019.68701
690.476,1003.01984
690.671,1075.94669
690.866,983.00697
691.061,992.85137
691.255,963.0407
691.45,1012.53188
691.645,978.76751
691.84,1004.49545
692.034,923.53395
692.229,996.06282
692.424,990.93069
692.618,947.2192
692.813,932.19061
693.007,971.27684
693.202,973.02391
693.397,1021.41728
693.591,985.09179
693.786,949.64354
693.98,921.56102
694.175,874.5651
694.369,935.89254
694.564,928.55879
694.758,922.23674
694.953,915.69647
695.147,892.77682
695.342,876.91474
695.536,868.43463
695.73,926.7148
695.925,874.68866
696.119,892.24512
696.313,915.59776
696.508,821.35229
696.702,827.6216
696.896,848.83462
697.091,864.29014
697.285,856.3668
697.479,879.29627
697.673,844.74189
697.868,865.44841
698.062,843.5244
698.256,1008.40503
698.45,885.72528
698.644,864.35105
698.839,901.11586
699.033,937.72164
699.227,874.38
699.421,866.9434
699.615,862.88813
699.809,931.35625
700.003,911.01817
700.197,884.03102
700.391,892.18259
700.585,854.29252
700.779,918.30579
700.973,860.41709
701.167,908.79294
701.361,850.85007
701.555,917.14548
701.749,801.54444
701.943,824.99807
702.137,879.7418
702.331,860.99807
702.525,864.44248
702.718,948.28135
702.912,901.37036
703.106,883.65551
703.3,889.23693
703.494,850.74439
703.687,852.03746
703.881,904.75748
704.075,988.07321
704.269,851.45076
704.462,847.23803
704.656,893.6896
704.85,905.63071
705.043,876.96243
705.237,888.07667
705.431,918.46709
705.624,883.87441
705.818,847.35819
706.012,878.41629
706.205,896.03429
706.399,862.27788
706.592,869.07744
706.786,904.37437
706.979,917.76607
707.173,813.08742
707.366,813.48905
707.56,957.8514
707.753,797.77095
707.947,888.5485
708.14,878.50973
708.333,821.73047
708.527,798.81411
708.72,842.7244
708.914,831.32581
709.107,900.20961
709.3,860.113
709.494,898.33303
709.687,889.36277
709.88,851.72215
710.073,952.69604
710.267,834.26735
710.46,798.16204
710.653,875.71329
710.846,841.68556
711.04,870.11359
711.233,891.49479
711.426,858.12983
711.619,943.0028
711.812,846.93818
712.005,931.11128
712.198,820.68969
712.391,851.18004
712.585,899.68558
712.778,881.67881
712.971,889.64642
713.164,859.13669
713.357,867.52718
713.55,873.46763
713.743,898.11056
713.936,813.31316
714.129,884.28482
714.322,870.88416
714.514,863.49737
714.707,931.47292
714.9,871.64244
715.093,863.80276
715.286,855.25994
715.479,894.91358
715.672,938.31792
715.864,933.74329
716.057,872.0318
716.25,832.60077
716.443,915.59776
716.636,882.5252
716.828,803.52858
717.021,873.90022
717.214,863.61943
717.406,914.98598
717.599,866.36267
717.792,1009.31048
717.984,809.49183
718.177,853.4358
718.37,817.71187
718.562,824.16238
718.755,879.76387
718.947,809.61057
719.14,811.7804
719.333,874.05512
719.525,840.20497
719.718,805.84397
719.91,818.12013
720.103,828.04919
720.295,817.45025
720.487,723.88111
720.68,727.03169
720.872,734.16963
721.065,735.16648
721.257,749.95209
721.449,696.68951
721.642,672.49169
721.834,639.14346
722.026,690.43846
722.219,623.43705
722.411,680.15283
722.603,600.2297
722.796,679.92928
722.988,581.26421
723.18,631.87064
723.372,595.17709
723.565,530.16826
723.757,612.26653
723.949,657.81644
724.141,552.38986
724.333,664.85374
724.525,577.00415
724.717,574.62176
724.91,598.90555
725.102,572.9116
725.294,554.50441
725.486,522.67593
725.678,575.02014
725.87,542.91458
726.062,612.77874
726.254,513.38726
726.446,576.87805
726.638,547.5517
726.83,554.20695
727.022,512.55959
727.213,485.8177
727.405,468.80208
727.597,534.71886
727.789,551.38258
727.981,580.28394
728.173,562.78964
728.365,541.23105
728.556,524.0159
728.748,531.33488
728.94,607.66625
729.132,537.36863
729.324,474.89017
729.515,510.45315
729.707,519.29091
729.899,542.85483
730.09,501.48282
730.282,561.82538
730.474,555.63214
730.665,481.09528
730.857,578.61895
731.049,518.14367
731.24,521.24238
731.432,519.40517
731.623,521.43295
731.815,508.12198
732.006,468.00088
732.198,488.25279
732.389,559.58768
732.581,486.8028
732.772,476.01846
732.964,520.32392
733.155,471.67929
733.347,453.62759
733.538,503.92428
733.729,495.73366
733.921,576.36004
734.112,452.31678
734.304,528.35727
734.495,537.11256
734.686,495.60675
734.877,531.6071
735.069,465.06301
735.26,515.793
735.451,492.65788
735.643,508.34582
735.834,530.8098
736.025,505.66229
736.216,579.07128
736.407,574.99912
736.599,545.7424
736.79,517.2621
736.981,567.34691
737.172,551.18165
737.363,510.45315
737.554,580.5168
737.745,584.52119
737.936,542.83492
738.127,553.80079
738.318,560.53204
738.509,635.11549
738.7,554.78746
738.891,591.80742
739.082,551.44296
739.273,611.33806
739.464,574.68453
739.655,623.2564
739.846,569.31365
740.037,550.31471
740.228,586.79854
740.419,601.57709
740.609,579.5896
740.8,588.79827
740.991,653.397
741.182,576.98312
741.373,675.61029
741.563,610.16527
741.754,618.47656
741.945,644.57968
742.136,691.19273
742.326,626.93609
742.517,573.83123
742.708,594.50185
742.898,633.27271
743.089,692.59739
743.28,624.65657
743.47,679.68419
743.661,690.01389
743.851,594.71795
744.042,666.15246
744.233,696.36539
744.423,678.80068
744.614,735.37793
744.804,598.58035
744.995,555.55129
745.185,614.92506
745.376,632.259
745.566,681.94065
745.756,631.45128
745.947,647.40396
746.137,582.30765
746.328,647.14229
746.518,610.43156
746.708,612.99531
746.899,639.00654
747.089,686.62742
747.279,668.33901
747.47,606.4507
747.66,618.72232
747.85,680.83692
748.04,699.19812
748.231,647.4273
748.421,642.46223
748.611,684.64209
748.801,662.21135
748.991,631.64303
749.182,636.77262
749.372,645.42802
749.562,581.85839
749.752,582.01198
749.942,633.11249
750.132,627.90529
750.322,683.51296
750.512,697.3138
750.702,678.21463
750.892,663.31593
751.082,680.12584
751.272,625.46724
751.462,663.84495
751.652,709.44552
751.842,638.08627
752.032,657.23588
752.222,657.72132
752.412,630.65214
752.602,659.57362
752.792,614.83552
752.981,679.78214
753.171,639.32706
753.361,640.04236
753.551,613.41694
753.741,609.03693
753.93,626.59528
754.12,641.07797
754.31,590.03297
754.5,657.4273
754.689,658.2092
754.879,619.96231
755.069,651.39946
755.258,579.26114
755.448,592.26741
755.638,579.1767
755.827,664.56466
756.017,569.02321
756.206,634.90739
756.396,578.65105
756.586,578.79786
756.775,588.16211
756.965,592.48269
757.154,636.54221
757.344,559.98049
757.533,677.89249
757.723,634.12588
757.912,600.20788
758.101,547.51144
758.291,557.68491
758.48,576.33892
758.67,572.69959
758.859,655.11987
759.048,647.7078
759.238,588.75559
759.427,647.30713
759.616,579.56866
759.806,596.67134
759.995,598.43073
760.184,515.17521
760.373,603.63707
760.563,559.34196
760.752,639.12239
760.941,555.9158
761.13,514.68396
761.319,566.50866
761.509,546.93022
761.698,592.63374
761.887,568.24734
762.076,481.39499
762.265,570.5882
762.454,461.88198
762.643,534.7384
762.832,454.53821
763.021,471.52289
763.21,440.9161
763.399,454.57159
763.588,491.52963
763.777,455.12497
763.966,492.25595
764.155,407.07421
764.344,435.10187
764.533,377.96257
764.722,412.51762
764.911,387.11617
765.1,374.77411
765.288,377.24176
765.477,488.79373
765.666,401.76147
765.855,325.56919
766.044,343.69731
766.232,273.14852
766.421,331.22129
766.61,298.80331
766.799,351.35037
766.987,349.49912
767.176,232.62603
767.365,266.26091
767.553,288.66453
767.742,386.08825
767.931,275.44622
768.119,276.41888
768.308,303.42909
768.497,270.79081
768.685,286.33458
768.874,301.34198
769.062,255.45052
769.251,234.10516
769.439,308.1755
769.628,294.6458
769.816,285.50659
770.005,331.13481
770.193,286.54891
770.382,291.01783
770.57,301.47838
770.758,317.9605
770.947,290.1077
771.135,353.6202
771.323,345.79983
771.512,282.33419
771.7,378.17334
771.888,407.48332
772.077,310.8531
772.265,418.45286
772.453,373.71537
772.642,374.74623
772.83,362.41914
773.018,413.59972
773.206,394.82638
773.394,397.28997
773.583,433.84439
773.771,407.19511
773.959,455.29366
774.147,427.02685
774.335,432.47618
774.523,421.37133
774.711,427.26409
774.899,426.21444
775.087,429.98323
775.275,449.49772
775.463,415.71734
775.651,444.63864
775.839,395.91062
776.027,461.38794
776.215,500.74121
776.403,438.00264
776.591,517.03445
776.779,478.41624
776.967,477.95894
777.155,412.31959
777.343,454.75549
777.531,489.70599
777.718,487.26791
777.906,516.72364
778.094,490.5457
778.282,442.72623
778.47,496.5554
778.657,506.23759
778.845,477.39324
779.033,468.20746
779.22,488.03766
779.408,454.60498
779.596,507.77872
779.783,498.88864
779.971,433.81228
780.159,530.61478
780.346,457.17997
780.534,373.2029
780.722,489.869
780.909,498.22656
781.097,479.54502
781.284,525.26077
781.472,466.01975
781.659,450.59311
781.847,479.22729
782.034,523.80436
782.222,533.66884
782.409,438.24518
782.597,501.09761
782.784,443.72355
782.971,497.57464
783.159,451.48832
783.346,456.25388
783.533,462.05325
783.721,464.96002
783.908,505.29491
784.095,463.95146
784.283,443.60903
784.47,444.88456
784.657,452.20064
784.844,489.48927
785.032,423.98816
785.219,417.19988
785.406,424.84927
785.593,451.38853
785.78,452.58307
785.968,388.21588
786.155,456.22011
786.342,443.88754
786.529,470.36011
786.716,472.8777
786.903,459.77719
787.09,446.64775
787.277,458.27461
787.464,422.79646
787.651,480.6561
787.838,406.81818
788.025,430.5388
788.212,478.39859
788.399,436.08532
788.586,472.94758
788.773,419.42608
788.96,357.8011
789.147,414.58978
789.334,387.04419
789.521,403.61468
789.707,410.62712
789.894,383.75919
790.081,384.8591
790.268,381.21906
790.455,474.42803
790.641,436.42528
790.828,408.60691
791.015,478.46922
791.202,437.47342
791.388,445.01614
791.575,403.86933
791.762,430.60264
791.948,420.50794
792.135,458.81817
792.322,397.48278
792.508,420.47677
792.695,430.84264
792.881,410.85669
793.068,367.9913
793.254,346.76012
793.441,363.4796
793.627,416.31881
793.814,390.44399
794.0,341.24854
794.187,371.40317
794.373,417.15345
794.56,382.63067
794.746,388.15814
794.933,350.02664
795.119,401.9564
795.305,436.36037
795.492,350.32671
795.678,386.16025
795.864,412.839
796.051,372.44832
796.237,382.57374
796.423,368.15573
796.61,353.51477
796.796,319.91861
796.982,344.6072
797.168,410.67295
797.355,380.33133
797.541,341.31221
797.727,416.31881
797.913,341.0074
798.099,401.22528
798.285,294.46849
798.471,352.75554
798.658,409.14904
798.844,410.8107
799.03,338.72789
799.216,393.75658
799.402,375.73486
799.588,365.9943
799.774,339.25866
799.96,411.87874
800.146,390.41495
800.332,393.97653
800.518,359.22256
800.704,380.03523
800.89,342.32557
801.075,349.13298
801.261,351.32418
801.447,304.29553
801.633,304.22742
801.819,332.48613
802.005,355.599
802.19,372.7537
802.376,415.29789
802.562,361.27771
802.748,425.02243
802.934,368.10086
803.119,349.40732
803.305,371.34792
803.491,462.89119
803.676,366.95886
803.862,405.04326
804.048,328.13181
804.233,358.02734
804.419,368.15573
804.605,366.99986
804.79,314.52783
804.976,361.50662
805.161,396.13146
805.347,327.92292
805.532,308.74855
805.718,353.69943
805.903,407.24052
806.089,350.37909
806.274,296.29313
806.46,338.04122
806.645,345.83857
806.831,370.55121
807.016,356.03674
807.201,377.04487
807.387,376.84873
807.572,303.15665
807.757,341.15955
807.943,369.25676
808.128,328.9529
808.313,408.2783
808.499,312.15465
808.684,374.06459
808.869,352.33428
809.054,333.53989
809.24,330.09321
809.425,275.26022
809.61,408.12691
809.795,340.47694
809.98,287.64464
810.165,338.81593
810.35,414.23019
810.536,343.49193
810.721,314.3633
810.906,349.34185
811.091,354.88119
811.276,286.36665
811.461,327.86167
811.646,336.9253
811.831,324.67191
812.016,346.98005
812.201,358.00067
812.386,302.19859
812.571,276.43961
812.756,326.92924
812.941,304.13678
813.125,346.07171
813.31,287.56924
813.495,330.46442
813.68,293.4062
813.865,338.09181
814.05,293.4062
814.234,258.5937
814.419,355.8771
814.604,371.87519
814.789,307.75897
814.973,344.83904
815.158,307.782
815.343,286.74283
815.528,293.64964
815.712,263.027
815.897,303.14534
816.081,286.46304
816.266,276.35678
816.451,302.39144
816.635,298.06718
816.82,269.62287
817.004,278.69537
817.189,323.84738
817.374,305.41172
817.558,305.57164
817.743,234.16721
817.927,286.73203
818.111,281.23695
818.296,262.25493
818.48,297.87642
818.665,254.29273
818.849,285.74328
819.034,278.842
819.218,218.25105
819.402,231.77794
819.587,244.14453
819.771,266.72227
819.955,252.11146
820.14,248.63989
820.324,227.40302
820.508,233.97261
820.692,255.49885
820.877,217.11518
821.061,248.8187
821.245,194.73286
821.429,203.77134
821.613,173.56388
821.798,189.28123
821.982,196.93629
822.166,216.2656
822.35,248.94157
822.534,234.11402
822.718,243.08037
822.902,228.69664
823.086,209.37298
823.27,209.39675
823.454,175.80767
823.638,187.00986
823.822,189.26684
824.006,181.41639
824.19,155.50698
824.374,162.49759
824.558,167.91536
824.742,169.06295
824.926,221.82723
825.11,200.36437
825.294,219.71983
825.477,141.96043
825.661,220.66496
825.845,117.33392
826.029,163.36539
826.213,181.36816
826.396,170.29526
826.58,219.41189
826.764,187.06673
826.948,184.71099
827.131,198.03392
827.315,219.48651
827.499,172.57353
827.682,192.75533
827.866,162.34246
828.05,197.24273
828.233,180.15119
828.417,175.76757
828.6,236.27319
828.784,224.11051
828.967,257.75732
829.151,216.36434
829.335,207.37642
829.518,216.12627
829.701,138.5687
829.885,223.00687
830.068,259.95693
830.252,198.1987
830.435,191.51673
830.619,190.27273
830.802,184.73902
830.985,174.63269
831.169,223.02381
831.352,152.26281
831.535,133.18269
831.719,221.6511
831.902,167.89622
832.085,154.45553
832.269,303.46327
832.452,201.69107
832.635,176.92277
832.818,188.20988
833.002,200.41745
833.185,267.78072
833.368,227.67981
833.551,142.12244
833.734,192.57225
833.917,215.18563
834.1,235.44809
834.284,171.24832
834.467,219.54467
834.65,217.39468
834.833,139.84963
835.016,237.46428
835.199,190.35204
835.382,194.85827
835.565,167.88347
835.748,188.10262
835.931,160.01243
836.114,128.5695
836.297,209.3809
836.479,181.38882
836.662,215.03052
836.845,233.01182
837.028,196.83984
837.211,179.01005
837.394,212.85437
837.577,180.46669
837.759,160.15875
837.942,152.10071
838.125,201.38582
838.308,198.20621
838.49,172.35678
838.673,461.26927
838.856,155.37161
839.039,266.70209
839.221,157.74469
839.404,141.98195
839.587,154.20411
839.769,200.6002
839.952,232.93253
840.134,167.76266
840.317,171.37215
840.499,180.17164
840.682,239.613
840.865,244.19064
841.047,185.77577
841.23,183.53425
841.412,184.66202
841.595,280.17128
841.777,185.93088
841.959,180.24679
842.142,183.58292
842.324,232.85344
842.507,278.92603
842.689,206.12929
842.871,199.42545
843.054,238.41297
843.236,248.65867
843.418,242.09835
843.601,179.21394
843.783,155.55426
843.965,267.72007
844.147,193.73719
844.33,187.93193
844.512,203.86404
844.694,239.78515
844.876,225.09458
845.059,188.01002
845.241,218.42434
845.423,203.84083
845.605,263.43423
845.787,234.0344
845.969,202.67391
846.151,276.76232
846.333,219.73657
846.515,266.75256
846.697,246.29005
846.879,216.08541
847.061,201.56857
847.243,226.26577
847.425,183.70849
847.607,209.48406
847.789,218.39126
847.971,191.40783
848.153,203.77905
848.335,195.96443
848.517,184.76006
848.699,194.95456
848.881,173.46503
849.062,206.02771
849.244,157.82866
849.426,211.66941
849.608,156.81996
849.789,203.67895
849.971,184.70399
850.153,228.57506
850.335,195.98674
850.516,167.82616
850.698,206.05112
850.88,179.0914
851.061,225.11161
851.243,210.47727
851.425,200.31896
851.606,154.51442
851.788,238.52083
851.969,183.51342
852.151,217.18892
852.333,254.31195
852.514,208.39489
852.696,258.87682
852.877,221.9199
853.059,202.76618
853.24,254.15848
853.422,243.82349
853.603,238.81019
853.784,278.02826
853.966,195.90505
854.147,217.34517
854.329,145.42485
854.51,172.28496
854.691,145.33104
854.873,174.54003
855.054,193.89203
855.235,267.65952
855.416,217.13155
855.598,198.0638
855.779,187.10948
855.96,227.41164
856.141,200.53153
856.323,231.95339
856.504,203.87952
856.685,288.00202
856.866,198.289
857.047,179.15259
857.228,160.09157
857.409,120.74961
857.591,140.87603
857.772,200.38711
857.953,225.12864
858.134,134.13248
858.315,238.76481
858.496,211.63736
858.677,188.13833
858.858,191.50218
859.039,146.63659
859.22,179.17984
859.401,145.42485
859.582,147.79346
859.762,127.41749
859.943,152.26281
860.124,212.97577
860.305,121.6375
860.486,127.48058
860.667,215.00611
860.848,126.34769
861.028,151.17454
861.209,220.88305
861.39,119.56218
861.571,182.4618
861.751,181.53391
861.932,202.61256
862.113,171.20287
862.293,165.79784
862.474,227.3428
862.655,156.62291
862.835,161.23852
863.016,173.45188
863.197,173.47161
863.377,136.42877
863.558,166.90151
863.738,171.41139
863.919,174.60618
864.099,238.82836
864.28,172.63959
864.46,210.45341
864.641,182.48948
864.821,161.28159
865.002,155.50108
865.182,111.6957
865.363,161.18939
865.543,189.42549
865.723,124.07284
865.904,133.19289
866.084,176.78858
866.264,176.95643
866.445,183.54814
866.625,144.3299
866.805,165.56465
866.986,236.3625
867.166,229.86125
867.346,192.62338
867.526,182.52413
867.707,145.44698
867.887,177.94992
868.067,169.12736
868.247,210.71695
868.427,167.94091
868.607,125.13398
868.788,117.35181
868.968,146.55837
869.148,183.75049
869.328,146.53608
869.508,124.1771
869.688,97.13028
869.868,117.25808
870.048,190.50412
870.228,125.18155
870.408,109.34104
870.588,156.70629
870.768,166.79979
870.948,183.79958
871.128,174.55986
871.307,165.80417
871.487,191.75789
871.667,261.03672
871.847,136.49115
872.027,154.45553
872.207,106.17205
872.387,125.27707
872.566,102.75124
872.746,174.75234
872.926,152.17582
873.106,149.99975
873.285,176.9699
873.465,137.51476
873.645,128.7466
873.824,99.375
874.004,126.3911
874.184,120.76345
874.363,136.52242
874.543,165.72826
874.723,67.89193
874.902,163.353
875.082,120.70817
875.261,178.09872
875.441,171.26133
875.62,153.30973
875.8,147.86703
875.979,161.171
876.159,189.31001
876.338,143.3221
876.518,140.90814
876.697,110.66111
876.876,132.01349
877.056,106.11925
877.235,179.25492
877.415,83.57494
877.594,99.35602
877.773,82.52346
877.953,87.02321
878.132,159.04802
878.311,136.55896
878.49,132.08928
878.67,144.25309
878.849,190.59142
879.028,155.65509
879.207,112.77606
879.387,166.83153
879.566,119.6443
879.745,149.97688
879.924,161.16487
880.103,92.70383
880.282,117.32051
880.461,94.81282
880.64,110.6188
880.819,124.11068
880.998,88.24638
881.178,162.36721
881.357,163.47101
881.536,184.8022
881.715,119.63973
881.893,92.64694
882.072,153.3974
882.251,145.48578
882.43,41.92569
882.609,116.18406
882.788,160.23227
882.967,157.90089
883.146,118.53863
883.325,94.88886
883.503,111.74684
883.682,128.6923
883.861,124.21994
884.04,164.631
884.219,190.56957
884.397,105.03548
884.576,175.65434
884.755,163.45234
884.933,129.86103
885.112,130.87507
885.291,154.48496
885.469,156.79598
885.648,92.71096
885.827,126.37661
886.005,132.10447
886.184,181.47854
886.363,130.9301
886.541,137.77237
886.72,71.27108
886.898,333.49003
887.077,110.61035
887.255,102.75124
887.434,62.23267
887.612,85.86217
887.791,129.80133
887.969,130.85011
888.147,97.14143
888.326,81.39841
888.504,134.26535
888.682,164.75063
888.861,107.25134
889.039,168.04338
889.218,133.0861
889.396,116.20619
889.574,183.77853
889.752,111.6787
889.931,85.8294
890.109,74.59866
890.287,56.62353
890.465,136.57465
890.643,37.47664
890.822,134.17837
891.0,172.43537
891.178,174.70574
891.356,92.62566
891.534,61.09576
891.712,105.04756
891.89,186.98856
892.068,168.08836
892.247,110.67806
892.425,179.1594
892.603,112.88785
892.781,68.97515
892.959,131.99837
893.137,117.40562
893.314,94.85622
893.492,60.0052
893.67,108.32155
893.848,181.4026
894.026,151.13989
894.204,129.79636
894.382,133.18779
894.56,123.1192
894.738,39.68827
894.915,94.91431
895.093,128.69723
895.271,133.0203
895.449,101.66214
895.626,212.04056
895.804,111.75965
895.982,160.07937
896.16,110.65687
896.337,119.6626
896.515,67.84772
896.693,102.70419
896.87,77.98717
897.048,128.77628
897.225,81.38905
897.403,156.784
897.581,128.63816
897.758,151.12259
897.936,27.32261
898.113,102.81027
898.291,53.23995
898.468,138.732
898.646,148.02066
898.823,101.65825
899.001,171.58216
899.178,72.40207
899.356,67.8711
899.533,101.74808
899.71,109.52429
899.888,73.49654
900.065,65.58799
900.242,80.2764
900.42,99.47029
900.597,60.04214
900.774,124.1581
900.952,64.56232
901.129,78.06199
901.306,89.28651
901.483,64.4731
901.661,118.55224
901.838,99.50476
902.015,85.88517
902.192,83.73859
902.369,74.65871
902.546,98.34881
902.723,55.45314
902.901,90.47399
903.078,53.26861
903.255,84.80921
903.432,92.71809
903.609,92.64339
903.786,49.89127
903.963,46.51149
904.14,88.03708
904.317,74.66444
904.494,67.94157
904.671,88.14128
904.848,88.28388
905.024,51.03745
905.201,53.23382
905.378,60.03289
905.555,54.37194
905.732,115.19732
905.909,62.34057
906.086,83.67414
906.262,5.92215
906.439,109.54106
906.616,53.26656
906.793,92.66114
906.969,57.79149
907.146,54.35734
907.323,45.40058
907.5,23.95953
907.676,99.45882
907.853,116.45607
908.03,28.46408
908.206,81.39841
908.383,63.44071
908.559,87.11022
908.736,66.79975
908.912,75.81332
909.089,26.22365
909.266,52.08423
909.442,14.94177
909.619,57.74704
909.795,89.29336
909.972,29.62051
910.148,40.85878
910.324,37.47809
910.501,54.39703
910.677,38.63726
910.854,8.18138
911.03,64.49532
911.206,63.41625
911.383,64.49285
911.559,29.59764
911.735,75.79291
911.912,108.44584
912.088,75.85718
912.264,73.61543
912.44,103.93896
912.617,62.24459
912.793,111.83673
912.969,87.03989
913.145,57.78035
913.321,112.97006
913.498,77.96928
913.674,60.00981
913.85,41.98835
914.026,43.12136
914.202,43.0504
914.378,27.32261
914.554,42.01749
914.73,62.23028
914.906,109.60833
915.082,105.12829
915.258,28.46299
915.434,-9.87446
915.61,26.2196
915.786,-12.13101
915.962,100.69253
916.138,47.6418
916.314,54.40542
916.49,75.825
916.665,110.80581
916.841,52.15228
917.017,46.49181
917.193,29.60677
917.369,43.14464
917.545,99.44736
917.72,58.91345
917.896,46.55285
918.072,71.29573
918.247,10.43226
918.423,63.41137
918.599,26.22669
918.775,22.8228
918.95,-15.5155
919.126,115.20174
919.301,89.36896
919.477,72.38263
919.653,58.91572
919.828,59.99369
920.004,43.128
920.179,99.41304
920.355,267.47845
920.53,45.34123
920.706,52.19057
920.881,37.47809
921.057,7.04923
921.232,57.7848
921.408,92.73237
921.583,25.09526
921.759,57.78258
921.934,84.83531
922.109,25.09236
922.285,127.78462
922.46,5.9272
922.635,46.49896
922.811,63.46523
922.986,51.03745
923.161,74.63579
923.336,-14.39575
923.512,97.17493
923.687,85.95774
923.862,70.17797
924.037,81.44846
924.212,53.27681
924.388,31.86745
924.563,38.6045
924.738,62.24936
924.913,66.84358
925.088,-0.8454
925.263,43.09321
925.438,56.65838
925.613,103.96291
925.788,37.5186
925.963,110.7418
926.138,109.73949
926.313,45.37607
926.488,-0.84579
926.663,44.28716
926.838,61.11682
927.013,53.27887
927.188,-5.35628
927.363,39.75384
927.538,58.89984
927.713,38.62533
927.888,31.83555
928.062,96.09808
928.237,88.13116
928.412,54.38866
928.587,53.24812
928.761,67.8737
928.936,20.5774
929.111,36.38951
929.286,39.75384
929.46,47.61431
929.635,51.05324
929.81,81.49558
929.984,69.06524
930.159,10.41823
930.334,-40.29521
930.508,33.00252
930.683,25.09236
930.857,56.68244
931.032,43.16802
931.206,-3.1022
931.381,98.40568
931.556,4.79626
931.73,79.24576
931.904,2.5389
932.079,96.06854
932.253,66.83325
932.428,-0.84573
932.602,37.50409
932.777,55.61583
932.951,26.2095
933.125,12.67617
933.3,89.26257
933.474,4.79644
933.648,28.46299
933.823,27.34996
933.997,80.28872
934.171,60.09786
934.345,14.94005
934.52,-18.904
934.694,14.9412
934.868,10.44398
935.042,9.31399
935.217,29.60449
935.391,-16.65262
935.565,18.33508
935.739,14.95043
935.913,31.827
936.087,23.94204
936.261,13.81383
936.435,11.56074
936.609,-7.61537
936.783,5.92399
936.957,46.49896
937.131,54.43062
937.305,-1.97196
937.479,-16.65068
937.653,-5.36271
937.827,8.18646
938.001,28.50039
938.175,-17.77024
938.349,1.41031
938.523,1.41086
938.697,52.1825
938.87,4.79663
939.044,-12.13195
939.218,-5.36229
939.392,63.38213
939.566,-23.43203
939.739,10.42984
939.913,20.5933
940.087,-47.13632
940.261,-6.4883
940.434,-13.26384
940.608,67.95206
940.782,17.2111
940.955,-20.03842
941.129,-3.1016
941.302,11.55762
941.476,-50.54794
941.65,37.46513
941.823,-6.48805
941.997,60.05372
942.17,4.79644
942.344,-11.01688
942.517,36.35302
942.691,3.66595
942.864,4.79812
943.038,11.56476
943.211,17.20511
943.385,-49.39627
943.558,19.44351
943.731,131.95811
943.905,21.70786
944.078,-1.97394
944.251,-15.5143
944.425,-5.35855
944.598,-34.69093
944.771,8.19252
944.945,-1.97508
945.118,22.85896
945.291,-29.06532
945.464,-11.00062
945.638,-16.6468
945.811,29.60677
945.984,19.4353
946.157,60.04908
946.33,-5.36
946.503,13.83148
946.677,0.2824
946.85,27.37113
947.023,17.1978
947.196,-12.1221
947.369,23.99199
947.542,-41.48239
947.715,29.60449
947.888,-31.30706
948.061,9.29961
948.234,44.22407
948.407,28.47835
948.58,-4.23003
948.753,25.10885
948.926,5.92101
949.099,-12.13948
949.271,16.06357
949.444,29.61364
949.617,-17.78057
949.79,-44.86784
949.963,42.05004
950.136,47.67494
950.308,22.86607
950.481,-45.99927
950.654,63.4456
950.827,-33.59076
950.999,-32.45094
951.172,14.9412
951.345,18.31459
951.517,10.43467
951.69,-46.06565
951.863,-4.23068
952.035,51.07499
952.208,66.79718
952.381,5.92882
952.553,17.20844
952.726,39.77998
952.898,-71.98309
953.071,7.05141
953.243,-10.9985
953.416,21.73055
953.588,52.16435
953.761,-44.89575
953.933,-34.69362
954.106,81.53657
954.278,19.47283
954.45,8.17569
954.623,12.69327
954.795,-35.81425
954.967,-16.64165
955.14,-11.00574
955.312,-31.30101
955.484,99.53162
955.657,43.18309
955.829,7.04597
956.001,0.28209
956.173,-49.35037
956.346,-40.35753
956.518,-9.87599
956.69,-24.55127
956.862,-25.67658
957.034,20.58853
957.207,25.10691
957.379,99.547
957.551,-31.32525
957.723,39.74158
957.895,-24.56272
958.067,-12.12913
958.239,-22.30755
958.411,5.9201
958.583,13.81276
958.755,1.41102
958.927,-6.49485
959.099,23.95953
959.271,84.89425
959.443,-33.56602
959.615,-14.39855
959.787,16.07846
959.959,23.954
960.13,-33.59467
960.302,28.51035
960.474,44.29745
960.646,-3.101
960.818,8.17979
960.99,71.4338
961.161,-44.8522
961.333,31.85761
961.505,27.32681
961.677,-5.35917
961.848,-4.2297
962.02,-51.62835
962.192,-49.39627
962.363,-4.22758
962.535,37.51134
962.707,14.95275
962.878,-6.48604
963.05,82.62195
963.221,-33.56212
963.393,4.79292
963.564,-8.72996
963.736,7.04896
963.907,11.57869
964.079,-22.28504
964.25,-14.37627
964.422,48.76284
964.593,-36.99029
964.765,51.06905
964.936,56.63658
965.108,-14.38738
965.279,41.98028
965.45,3.66652
965.622,7.04896
965.793,3.66908
965.964,31.83433
966.136,42.05167
966.307,-79.86698
966.478,16.07535
966.65,-38.08942
966.821,43.12136
966.992,17.20511
967.163,5.92238
967.334,-5.35772
967.506,-5.35855
967.677,-3.10436
967.848,-8.74273
968.019,-12.13383
968.19,-3.1046
968.361,-12.12678
968.532,12.68739
968.703,26.23176
968.874,10.44317
969.045,35.23325
969.216,-4.22807
969.387,-33.56472
969.558,58.90664
969.729,16.07721
969.9,-41.46472
970.071,-3.10364
970.242,19.454
970.413,58.91799
970.584,-12.12913
970.755,-3.10076
970.926,11.55984
971.097,-7.61185
971.267,7.04597
971.438,2.539
971.609,39.75077
971.78,-11.00659
971.951,-48.25691
972.121,-24.55127
972.292,53.32625
972.463,66.83325
972.633,-21.14484
972.804,10.43629
972.975,56.67149
973.145,-0.84678
973.316,9.3057
973.487,10.42703
973.657,26.24395
973.828,20.59012
973.998,-14.39631
974.169,-10.9968
974.339,-30.19466
974.51,25.09333
974.68,71.32594
974.851,28.52812
975.021,-5.36375
975.192,62.33816
975.362,48.75909
975.533,1.41107
975.703,49.90666
975.874,38.62682
976.044,20.60289
976.214,35.21024
976.385,46.51149
976.555,22.83686
976.725,1.41113
976.896,-27.90473
977.066,-64.043
977.236,-9.87714
977.406,19.46302
977.577,-1.9747
977.747,43.10644
977.917,-42.59548
978.087,36.4022
978.257,36.37545
978.427,115.37498
978.598,56.6912
978.768,10.43105
978.938,-35.79492
979.108,40.91562
979.278,17.18721
979.448,4.7885
979.618,-35.84617
979.788,81.461
979.958,-82.17903
980.128,-24.54936
980.298,-29.04508
980.468,20.58693
980.638,43.14131
980.808,16.09657
980.978,36.35582
981.148,17.21244
981.317,-18.9062
981.487,4.7957
981.657,17.21845
981.827,0.28215
981.997,2.53959
982.167,-43.74673
982.336,9.30858
982.506,-35.86291
982.676,40.91721
982.846,45.33776
983.015,40.87137
983.185,3.66766
983.355,30.72695
983.524,73.60973
983.694,-8.74442
983.864,8.17474
984.033,-44.894
984.203,-23.43203
984.372,-16.6481
984.542,0.28206
984.712,-50.49106
984.881,0.28208
985.051,52.16435
985.22,-0.84645
985.39,-12.13336
985.559,-39.2142
985.728,-31.28652
985.898,55.54477
986.067,-1.97401
986.237,54.43483
986.406,16.07349
986.576,-10.99256
986.745,43.18142
986.914,-25.67558
987.084,19.4683
987.253,3.66808
987.422,14.94986
987.591,14.95739
987.761,4.79849
987.93,53.2645
988.099,17.19581
988.268,28.4597
988.438,51.03745
988.607,-5.36146
988.776,25.08173
988.945,12.69229
989.114,-0.84576
989.283,37.50844
989.452,-47.05263
989.621,26.22669
989.791,14.94177
989.96,-65.2158
990.129,-66.33347
990.298,-3.1022
990.467,4.79329
990.636,-36.95441
990.805,-7.62514
990.974,-1.97485
991.142,49.94529
991.311,40.89345
991.48,85.9975
991.649,-8.74612
991.818,33.02556
991.987,-54.96603
992.156,-47.13816
992.325,66.81262
992.493,43.15966
992.662,356.6604
992.831,57.79594
993.0,-4.22677
993.168,44.27518
993.337,16.07535
993.506,1.40993
993.675,-14.39128
993.843,16.07846
994.012,-5.35545
994.181,22.82368
994.349,14.95565
994.518,-61.7764
994.686,-17.77644
994.855,13.80904
995.024,25.1108
995.192,36.39515
995.361,23.96507
995.529,10.43467
995.698,-67.45863
995.866,-21.16119
996.035,8.17222
996.203,56.68463
996.371,26.23988
996.54,19.4683
996.708,72.53076
996.877,5.92697
997.045,7.0525
997.213,-50.54597
997.382,38.64174
997.55,52.16838
997.718,13.80003
997.887,49.93368
998.055,26.21455
998.223,-39.22332
998.391,79.24576
998.56,20.59012
998.728,17.19581
998.896,12.69573
999.064,35.27961
999.232,58.90664
999.401,71.32869
999.569,-10.99892
999.737,-22.31103
999.905,14.94639
1000.073,1.40949
1000.241,33.02428
1000.409,9.30822
1000.577,29.60906
1000.745,42.02399
1000.913,29.61707
1001.081,-7.60658
1001.249,-12.12631
1001.417,37.5186
1001.585,12.68935
1001.753,42.02886
1001.921,-16.64229
1002.089,-25.66763
1002.256,4.79015
1002.424,-7.61596
1002.592,-25.68156
1002.76,16.06605
1002.928,23.97711
1003.096,-20.04154
1003.263,-13.25922
1003.431,-59.53586
1003.599,0.28224
1003.767,28.52478
1003.934,-24.54081
1004.102,39.77382
1004.27,0.28195
1004.437,43.15298
1004.605,-38.12051
1004.773,2.5389
1004.94,-33.59206
1005.108,3.66638
1005.275,38.62682
1005.443,-6.48579
1005.61,41.99805
1005.778,14.95043
1005.945,-30.18763
1006.113,-39.19601
1006.28,-25.6597
1006.448,2.5388
1006.615,2.54067
1006.783,46.53484
1006.95,10.43871
1007.118,45.39182
1007.285,-56.175
1007.452,13.81809
1007.62,-29.05856
1007.787,44.27347
1007.954,-7.62187
1008.122,-21.14402
1008.289,39.74465
1008.456,-41.46632
1008.623,-31.3423
1008.791,-3.10533
1008.958,28.47066
1009.125,-84.31388
1009.292,31.85393
1009.459,25.08849
1009.627,-0.84648
1009.794,35.27003
1009.961,30.71748
1010.128,23.95953
1010.295,23.97433
1010.462,-34.71783
1010.629,12.70164
1010.796,26.25619
1010.963,-74.20107
1011.13,-29.05519
1011.297,36.38388
1011.464,-22.28677
1011.631,-7.61832
1011.798,49.93948
1011.965,39.74771
1012.132,27.36689
1012.299,31.86745
1012.466,11.55495
1012.633,14.95971
1012.799,-40.35283
1012.966,-64.02812
1013.133,-22.31538
1013.3,-23.41385
1013.467,-30.18647
1013.633,-0.84622
1013.8,12.69327
1013.967,29.6389
1014.134,48.72164
1014.3,23.95768
1014.467,-18.92017
1014.634,32.9885
1014.8,-50.50475
1014.967,16.071
1015.134,-23.44298
1015.3,37.51279
1015.467,29.61478
1015.633,37.5448
1015.8,-27.93928
1015.966,7.05606
1016.133,58.93391
1016.3,81.46414
1016.466,52.1825
1016.632,29.59992
1016.799,51.06905
1016.965,53.32419
1017.132,40.85564
1017.298,-10.99553
1017.465,-27.92629
1017.631,16.07535
1017.797,-13.2623
1017.964,-43.73994
1018.13,36.38247
1018.296,19.46453
1018.463,-48.22142
1018.629,-11.01602
1018.795,1.4096
1018.961,22.85276
1019.128,-6.49309
1019.294,12.69622
1019.46,-32.45724
1019.626,0.28215
1019.792,-39.2523
1019.959,-7.62187
1020.125,-20.0291
1020.291,9.3057
1020.457,-33.57512
1020.623,3.66766
1020.789,-38.08057
1020.955,-38.11606
1021.121,-36.95298
1021.287,55.51696
1021.453,-15.5155
1021.619,-7.61596
1021.785,-13.26487
1021.951,17.21044
1022.117,-71.92728
1022.283,25.08366
1022.449,57.85411
1022.615,39.77536
1022.781,94.92159
1022.946,21.72044
1023.112,-16.66299
1023.278,87.08673
1023.444,-16.64874
1023.61,9.30894
1023.775,-36.95584
1023.941,-49.36181
1024.107,-36.98166
1024.273,-31.30706
1024.438,-40.3497
1024.604,-3.10196
1024.77,128.51574
1024.935,42.03863
1025.101,29.62051
1025.267,56.68025
1025.432,-15.51791
1025.598,-7.61832
1025.763,26.23074
1025.929,3.66723
1026.095,-6.49132
1026.26,10.42743
1026.426,-21.153
1026.591,19.47056
1026.757,28.5015
1026.922,48.80051
1027.087,-40.35753
1027.253,-58.40382
1027.418,0.28223
1027.584,22.84039
1027.749,-38.0688
1027.914,30.71512
1028.08,57.82721
1028.245,16.07721
1028.41,-0.84602
1028.576,-11.00105
1028.741,5.92284
1028.906,7.05551
1029.072,-17.77988
1029.237,-27.94796
1029.402,-44.86262
1029.567,-23.38318
1029.732,43.18142
1029.898,11.55895
1030.063,21.71037
1030.228,0.28185
1030.393,14.93774
1030.558,3.66666
1030.723,-4.23166
1030.888,35.22241
1031.053,-22.30321
1031.218,-14.39128
1031.383,19.47585
1031.548,38.61193
1031.713,-59.57287
1031.878,29.61937
1032.043,-55.06406
1032.208,99.47029
1032.373,35.28509
1032.538,7.04056
1032.703,-4.23134
1032.868,39.71563
1033.033,-21.1727
1033.198,-31.31918
1033.362,-6.48931
1033.527,26.21859
1033.692,31.84167
1033.857,19.45175
1034.021,3.66695
1034.186,31.87485
1034.351,28.51035
1034.516,49.88551
1034.68,-5.35628
1034.845,25.12347
1035.01,0.28187
1035.174,-27.93928
1035.339,5.92399
1035.504,-4.22937
1035.668,29.59764
1035.833,2.53792
1035.997,19.44875
1036.162,-3.10533
1036.326,-22.30494
1036.491,-18.90253
1036.655,-17.7785
1036.82,-64.00586
1036.984,39.76152
1037.149,9.30247
1037.313,21.692
1037.478,-6.48981
1037.642,9.30462
1037.807,-24.56367
1037.971,10.4375
1038.135,2.53694
1038.3,-21.1653
1038.464,-21.12047
1038.628,-7.61243
1038.792,3.66158
1038.957,-14.4036
1039.121,13.80267
1039.285,-15.5095
1039.449,-35.82811
1039.614,31.87855
1039.778,-42.60373
1039.942,53.31799
1040.106,5.92536
1040.27,4.7944
1040.434,28.47725
1040.599,-45.99214
1040.763,-40.34345
1040.927,2.53802
1041.091,1.41118
1041.255,0.28218
1041.419,-8.74138
1041.583,-23.41839
1041.747,-21.16119
1041.911,4.79329
1042.075,-38.08057
1042.239,-52.764
1042.403,30.74713
1042.567,12.69671
1042.731,93.88697
1042.894,14.94812
1043.058,31.86868
1043.222,4.80186
1043.386,40.90453
1043.55,-3.10328
1043.714,31.87855
1043.877,-12.12164
1044.041,-36.93442
1044.205,68.00466
1044.369,27.34785
1044.532,-84.42182
1044.696,-18.89011
1044.86,33.01275
1045.023,60.04445
1045.187,25.09526
1045.351,11.55495
1045.514,-1.9747
1045.678,-7.61302
1045.841,-10.9968
